Wavelength (nm)	D06 ems
346.00	0.0031499
346.50	0.0030679
347.00	0.0031094
347.50	0.0031083
348.00	0.0032005
348.50	0.0032437
349.00	0.0032591
349.50	0.0034082
350.00	0.0035396
350.50	0.0036283
351.00	0.0035912
351.50	0.0037356
352.00	0.0036847
352.50	0.0036070
353.00	0.0036883
353.50	0.0034130
354.00	0.0033777
354.50	0.0030608
355.00	0.0031067
355.50	0.0030868
356.00	0.0030527
356.50	0.0030309
357.00	0.0031232
357.50	0.0031020
358.00	0.0031498
358.50	0.0033168
359.00	0.0032966
359.50	0.0035311
360.00	0.0036353
360.50	0.0038284
361.00	0.0040520
361.50	0.0042757
362.00	0.0044193
362.50	0.0048662
363.00	0.0051238
363.50	0.0056662
364.00	0.0058717
364.50	0.0066560
365.00	0.0071530
365.50	0.0082169
366.00	0.0090106
366.50	0.010357
367.00	0.011644
367.50	0.014216
368.00	0.015841
368.50	0.019339
369.00	0.022688
369.50	0.028214
370.00	0.031747
370.50	0.038045
371.00	0.041984
371.50	0.048266
372.00	0.051516
372.50	0.056083
373.00	0.058620
373.50	0.063144
374.00	0.065496
374.50	0.069965
375.00	0.072920
375.50	0.078467
376.00	0.081232
376.50	0.086736
377.00	0.089672
377.50	0.093453
378.00	0.095385
378.50	0.098000
379.00	0.099576
379.50	0.10126
380.00	0.10209
380.50	0.10341
381.00	0.10502
381.50	0.10619
382.00	0.10729
382.50	0.11091
383.00	0.11297
383.50	0.11794
384.00	0.12098
384.50	0.12665
385.00	0.13235
385.50	0.14365
386.00	0.14818
386.50	0.16134
387.00	0.17167
387.50	0.18922
388.00	0.19891
388.50	0.21783
389.00	0.23360
389.50	0.25762
390.00	0.27302
390.50	0.29742
391.00	0.31692
391.50	0.34715
392.00	0.36352
392.50	0.39134
393.00	0.41155
393.50	0.44079
394.00	0.45831
394.50	0.48284
395.00	0.49981
395.50	0.52485
396.00	0.53652
396.50	0.55163
397.00	0.56250
397.50	0.57722
398.00	0.58307
398.50	0.59097
399.00	0.59431
399.50	0.59960
400.00	0.60024
400.50	0.59888
401.00	0.59764
401.50	0.59365
402.00	0.59074
402.50	0.58664
403.00	0.58310
403.50	0.57625
404.00	0.57344
404.50	0.56781
405.00	0.56489
405.50	0.56366
406.00	0.56193
406.50	0.56368
407.00	0.56315
407.50	0.56941
408.00	0.57345
408.50	0.58077
409.00	0.58704
409.50	0.60054
410.00	0.60860
410.50	0.62478
411.00	0.63523
411.50	0.65499
412.00	0.66676
412.50	0.68534
413.00	0.70052
413.50	0.72238
414.00	0.73424
414.50	0.75423
415.00	0.77008
415.50	0.79439
416.00	0.80694
416.50	0.82944
417.00	0.84588
417.50	0.86759
418.00	0.87989
418.50	0.89752
419.00	0.91070
419.50	0.93015
420.00	0.93776
420.50	0.95392
421.00	0.96414
421.50	0.97721
422.00	0.97981
422.50	0.99031
423.00	0.99416
423.50	0.99689
424.00	0.99956
424.50	0.99871
425.00	1.0000
425.50	0.99736
426.00	0.99486
426.50	0.98697
427.00	0.98267
427.50	0.97221
428.00	0.96552
428.50	0.95613
429.00	0.95183
429.50	0.93870
430.00	0.93241
430.50	0.92127
431.00	0.91550
431.50	0.90513
432.00	0.89998
432.50	0.89217
433.00	0.88701
433.50	0.88205
434.00	0.87932
434.50	0.87417
435.00	0.87174
435.50	0.87260
436.00	0.87210
436.50	0.87128
437.00	0.87291
437.50	0.87903
438.00	0.87747
438.50	0.88197
439.00	0.88748
439.50	0.89139
440.00	0.89289
440.50	0.89917
441.00	0.90655
441.50	0.91221
442.00	0.91625
442.50	0.92282
443.00	0.92779
443.50	0.93488
444.00	0.93880
444.50	0.94399
445.00	0.94798
445.50	0.95357
446.00	0.95619
446.50	0.96024
447.00	0.96340
447.50	0.96515
448.00	0.96719
448.50	0.96708
449.00	0.96873
449.50	0.96786
450.00	0.96687
450.50	0.96772
451.00	0.96557
451.50	0.96010
452.00	0.96007
452.50	0.95407
453.00	0.95026
453.50	0.94109
454.00	0.93777
454.50	0.92802
455.00	0.92037
455.50	0.91100
456.00	0.90395
456.50	0.89343
457.00	0.88668
457.50	0.87598
458.00	0.86905
458.50	0.85771
459.00	0.84893
459.50	0.83554
460.00	0.83091
460.50	0.82207
461.00	0.81499
461.50	0.80558
462.00	0.79806
462.50	0.78906
463.00	0.78476
463.50	0.77719
464.00	0.77038
464.50	0.76449
465.00	0.76042
465.50	0.75313
466.00	0.75052
466.50	0.74505
467.00	0.74076
467.50	0.73435
468.00	0.73435
468.50	0.72851
469.00	0.72663
469.50	0.72138
470.00	0.72045
470.50	0.71682
471.00	0.71438
471.50	0.71054
472.00	0.70896
472.50	0.70783
473.00	0.70576
473.50	0.70361
474.00	0.70078
474.50	0.69801
475.00	0.69664
475.50	0.69146
476.00	0.69053
476.50	0.68541
477.00	0.68430
477.50	0.67748
478.00	0.67727
478.50	0.67073
479.00	0.66871
479.50	0.66067
480.00	0.66099
480.50	0.65432
481.00	0.65167
481.50	0.64555
482.00	0.64159
482.50	0.63483
483.00	0.63197
483.50	0.62578
484.00	0.62125
484.50	0.61522
485.00	0.61014
485.50	0.60440
486.00	0.59964
486.50	0.59439
487.00	0.58918
487.50	0.58035
488.00	0.57730
488.50	0.57017
489.00	0.56555
489.50	0.55723
490.00	0.55501
490.50	0.54687
491.00	0.54290
491.50	0.53413
492.00	0.53149
492.50	0.52342
493.00	0.51809
493.50	0.51085
494.00	0.50753
494.50	0.49990
495.00	0.49475
495.50	0.48738
496.00	0.48496
496.50	0.47744
497.00	0.47611
497.50	0.46758
498.00	0.46356
498.50	0.45597
499.00	0.45313
499.50	0.44493
500.00	0.44378
500.50	0.43649
501.00	0.43263
501.50	0.42688
502.00	0.42501
502.50	0.41928
503.00	0.41535
503.50	0.40854
504.00	0.40694
504.50	0.40162
505.00	0.39915
505.50	0.39262
506.00	0.39068
506.50	0.38545
507.00	0.38217
507.50	0.37778
508.00	0.37563
508.50	0.37138
509.00	0.36916
509.50	0.36513
510.00	0.36311
510.50	0.35797
511.00	0.35587
511.50	0.35309
512.00	0.34962
512.50	0.34776
513.00	0.34447
513.50	0.34006
514.00	0.33760
514.50	0.33468
515.00	0.33127
515.50	0.32631
516.00	0.32601
516.50	0.32217
517.00	0.31952
517.50	0.31603
518.00	0.31359
518.50	0.31013
519.00	0.30724
519.50	0.30326
520.00	0.30020
520.50	0.29629
521.00	0.29503
521.50	0.29156
522.00	0.28768
522.50	0.28398
523.00	0.28250
523.50	0.27663
524.00	0.27534
524.50	0.27058
525.00	0.26859
525.50	0.26368
526.00	0.26134
526.50	0.25843
527.00	0.25465
527.50	0.25103
528.00	0.24895
528.50	0.24521
529.00	0.24183
529.50	0.23747
530.00	0.23515
530.50	0.23200
531.00	0.22842
531.50	0.22432
532.00	0.22334
532.50	0.21947
533.00	0.21654
533.50	0.21425
534.00	0.21254
534.50	0.20891
535.00	0.20639
535.50	0.20337
536.00	0.20125
536.50	0.19840
537.00	0.19683
537.50	0.19408
538.00	0.19135
538.50	0.18920
539.00	0.18744
539.50	0.18389
540.00	0.18267
540.50	0.17944
541.00	0.17707
541.50	0.17510
542.00	0.17455
542.50	0.17083
543.00	0.16908
543.50	0.16740
544.00	0.16513
544.50	0.16307
545.00	0.16259
545.50	0.15942
546.00	0.15757
546.50	0.15568
547.00	0.15343
547.50	0.15148
548.00	0.15021
548.50	0.14837
549.00	0.14699
549.50	0.14510
550.00	0.14327
550.50	0.14179
551.00	0.13994
551.50	0.13759
552.00	0.13675
552.50	0.13498
553.00	0.13261
553.50	0.13069
554.00	0.12944
554.50	0.12824
555.00	0.12692
555.50	0.12501
556.00	0.12316
556.50	0.12275
557.00	0.12089
557.50	0.11920
558.00	0.11811
558.50	0.11652
559.00	0.11500
559.50	0.11326
560.00	0.11301
560.50	0.11077
561.00	0.11002
561.50	0.10856
562.00	0.10754
562.50	0.10678
563.00	0.10446
563.50	0.10292
564.00	0.10213
564.50	0.10037
565.00	0.099844
565.50	0.097934
566.00	0.097984
566.50	0.095694
567.00	0.094747
567.50	0.093652
568.00	0.092775
568.50	0.091009
569.00	0.090134
569.50	0.089439
570.00	0.087454
570.50	0.086259
571.00	0.085350
571.50	0.084000
572.00	0.083642
572.50	0.082463
573.00	0.081117
573.50	0.080013
574.00	0.079287
574.50	0.077938
575.00	0.076606
575.50	0.074969
576.00	0.074504
576.50	0.073322
577.00	0.072324
577.50	0.070735
578.00	0.070272
578.50	0.069288
579.00	0.068968
579.50	0.067210
580.00	0.067007
580.50	0.065921
581.00	0.065079
581.50	0.063536
582.00	0.063057
582.50	0.062477
583.00	0.061440
583.50	0.060120
584.00	0.060549
584.50	0.059366
585.00	0.058767
585.50	0.057743
586.00	0.057011
586.50	0.056961
587.00	0.055434
587.50	0.054731
588.00	0.053853
588.50	0.053115
589.00	0.052811
589.50	0.051666
590.00	0.051848
590.50	0.050238
591.00	0.050377
591.50	0.048782
592.00	0.048997
592.50	0.048250
593.00	0.047307
593.50	0.047056
594.00	0.046905
594.50	0.045487
595.00	0.045251
595.50	0.044197
596.00	0.043758
596.50	0.043099
597.00	0.043124
597.50	0.042272
598.00	0.041651
598.50	0.041062
599.00	0.040446
599.50	0.039892
600.00	0.039501
0.0000	
