Wavelength (nm)	D07 ems
450.00	0.00051708
451.00	0.00075250
452.00	0.0010421
453.00	0.0018928
454.00	0.0030373
455.00	0.0035834
456.00	0.0031364
457.00	0.0021038
458.00	0.0011915
459.00	0.00077374
460.00	0.00068851
461.00	0.00065228
462.00	0.00072879
463.00	0.00075700
464.00	0.00076466
465.00	0.00081700
466.00	0.00089073
467.00	0.00096434
468.00	0.0010694
469.00	0.0011165
470.00	0.0012366
471.00	0.0013663
472.00	0.0015734
473.00	0.0016840
474.00	0.0019250
475.00	0.0021991
476.00	0.0024978
477.00	0.0027643
478.00	0.0031044
479.00	0.0036431
480.00	0.0041141
481.00	0.0046816
482.00	0.0054237
483.00	0.0061936
484.00	0.0069124
485.00	0.0080837
486.00	0.0090214
487.00	0.010226
488.00	0.011400
489.00	0.012916
490.00	0.014531
491.00	0.016353
492.00	0.018154
493.00	0.020495
494.00	0.022982
495.00	0.025434
496.00	0.028516
497.00	0.031619
498.00	0.035203
499.00	0.039363
500.00	0.043661
501.00	0.047885
502.00	0.053577
503.00	0.059125
504.00	0.065730
505.00	0.072423
506.00	0.079516
507.00	0.087214
508.00	0.095121
509.00	0.10324
510.00	0.11170
511.00	0.12046
512.00	0.13011
513.00	0.14012
514.00	0.15110
515.00	0.16276
516.00	0.17411
517.00	0.18701
518.00	0.19876
519.00	0.21183
520.00	0.22667
521.00	0.23963
522.00	0.25508
523.00	0.26983
524.00	0.28595
525.00	0.30185
526.00	0.31927
527.00	0.33743
528.00	0.35532
529.00	0.37267
530.00	0.39067
531.00	0.40888
532.00	0.42773
533.00	0.44459
534.00	0.46273
535.00	0.47982
536.00	0.49773
537.00	0.51517
538.00	0.53333
539.00	0.55149
540.00	0.56956
541.00	0.58560
542.00	0.60302
543.00	0.61751
544.00	0.63436
545.00	0.65183
546.00	0.66778
547.00	0.68424
548.00	0.69888
549.00	0.71578
550.00	0.72771
551.00	0.74389
552.00	0.75931
553.00	0.77279
554.00	0.78688
555.00	0.80083
556.00	0.81291
557.00	0.82556
558.00	0.83578
559.00	0.84680
560.00	0.85746
561.00	0.86801
562.00	0.87829
563.00	0.88553
564.00	0.89238
565.00	0.90395
566.00	0.91039
567.00	0.91991
568.00	0.92700
569.00	0.93522
570.00	0.94010
571.00	0.94711
572.00	0.95216
573.00	0.95858
574.00	0.96334
575.00	0.96989
576.00	0.97268
577.00	0.97699
578.00	0.98081
579.00	0.98532
580.00	0.98672
581.00	0.99120
582.00	0.99300
583.00	0.99572
584.00	0.99637
585.00	0.99748
586.00	0.99852
587.00	0.99861
588.00	1.0000
589.00	0.99741
590.00	0.99838
591.00	0.99836
592.00	0.99431
593.00	0.99294
594.00	0.99080
595.00	0.99036
596.00	0.98816
597.00	0.98742
598.00	0.98335
599.00	0.97799
600.00	0.97216
601.00	0.96667
602.00	0.96413
603.00	0.95769
604.00	0.95590
605.00	0.95071
606.00	0.94446
607.00	0.94081
608.00	0.93734
609.00	0.92768
610.00	0.92080
611.00	0.91591
612.00	0.91151
613.00	0.90373
614.00	0.89605
615.00	0.88955
616.00	0.88245
617.00	0.87558
618.00	0.86859
619.00	0.86085
620.00	0.85164
621.00	0.84765
622.00	0.84385
623.00	0.83041
624.00	0.82463
625.00	0.81574
626.00	0.80347
627.00	0.79380
628.00	0.78361
629.00	0.77848
630.00	0.77017
631.00	0.76325
632.00	0.75361
633.00	0.74653
634.00	0.74009
635.00	0.73164
636.00	0.72384
637.00	0.71298
638.00	0.70343
639.00	0.69520
640.00	0.68812
641.00	0.67762
642.00	0.67021
643.00	0.66148
644.00	0.64962
645.00	0.64281
646.00	0.63611
647.00	0.62899
648.00	0.61919
649.00	0.60968
650.00	0.60196
651.00	0.59257
652.00	0.58832
653.00	0.57723
654.00	0.57034
655.00	0.56482
656.00	0.55275
657.00	0.54816
658.00	0.53666
659.00	0.52975
660.00	0.52360
661.00	0.51189
662.00	0.50452
663.00	0.49780
664.00	0.48992
665.00	0.48329
666.00	0.47496
667.00	0.46926
668.00	0.46363
669.00	0.45669
670.00	0.44880
671.00	0.44145
672.00	0.43696
673.00	0.42865
674.00	0.42117
675.00	0.41396
676.00	0.40564
677.00	0.39797
678.00	0.39388
679.00	0.38730
680.00	0.38075
681.00	0.37255
682.00	0.36614
683.00	0.36052
684.00	0.35479
685.00	0.34835
686.00	0.34410
687.00	0.33833
688.00	0.33165
689.00	0.32469
690.00	0.31936
691.00	0.31377
692.00	0.30895
693.00	0.30520
694.00	0.30009
695.00	0.29275
696.00	0.28763
697.00	0.28103
698.00	0.27649
699.00	0.27248
700.00	0.26701
701.00	0.25978
702.00	0.25528
703.00	0.25025
704.00	0.24771
705.00	0.24316
706.00	0.23823
707.00	0.23341
708.00	0.22848
709.00	0.22384
710.00	0.22009
711.00	0.21514
712.00	0.21203
713.00	0.20920
714.00	0.20543
715.00	0.20025
716.00	0.19914
717.00	0.19411
718.00	0.18903
719.00	0.18917
720.00	0.18251
721.00	0.18014
722.00	0.17699
723.00	0.17262
724.00	0.16948
725.00	0.16496
726.00	0.16333
727.00	0.16100
728.00	0.15815
729.00	0.15418
730.00	0.15160
731.00	0.14852
732.00	0.14437
733.00	0.14343
734.00	0.13902
735.00	0.13685
736.00	0.13272
737.00	0.13250
738.00	0.12944
739.00	0.12578
740.00	0.12407
741.00	0.12190
742.00	0.11790
743.00	0.11703
744.00	0.11602
745.00	0.11313
746.00	0.10985
747.00	0.10688
748.00	0.10452
749.00	0.10231
750.00	0.098340
751.00	0.098391
752.00	0.095591
753.00	0.094039
754.00	0.091823
755.00	0.090408
756.00	0.087900
757.00	0.086540
758.00	0.083854
759.00	0.081917
760.00	0.080217
761.00	0.079026
762.00	0.077882
763.00	0.075166
764.00	0.075592
765.00	0.074061
766.00	0.072304
767.00	0.071303
768.00	0.069590
769.00	0.067995
770.00	0.065729
771.00	0.064919
772.00	0.061429
773.00	0.060989
774.00	0.059172
775.00	0.059560
776.00	0.056633
777.00	0.055901
778.00	0.055453
779.00	0.055706
780.00	0.054138
781.00	0.052803
782.00	0.051516
783.00	0.049493
784.00	0.050036
785.00	0.048832
786.00	0.046522
787.00	0.045846
788.00	0.045642
789.00	0.044727
790.00	0.043642
791.00	0.043645
792.00	0.043295
793.00	0.043434
794.00	0.045229
