Wavelength (nm)	D08 abs N
200.00	0.47621
201.00	0.50510
202.00	0.51436
203.00	0.50870
204.00	0.48758
205.00	0.46639
206.00	0.44911
207.00	0.43332
208.00	0.42140
209.00	0.41174
210.00	0.40237
211.00	0.39278
212.00	0.38310
213.00	0.37311
214.00	0.36480
215.00	0.35558
216.00	0.34664
217.00	0.33680
218.00	0.32665
219.00	0.31605
220.00	0.30497
221.00	0.29408
222.00	0.28399
223.00	0.27466
224.00	0.26574
225.00	0.25779
226.00	0.25060
227.00	0.24447
228.00	0.23925
229.00	0.23500
230.00	0.23147
231.00	0.22842
232.00	0.22513
233.00	0.22197
234.00	0.21936
235.00	0.21719
236.00	0.21528
237.00	0.21324
238.00	0.21139
239.00	0.20972
240.00	0.20814
241.00	0.20667
242.00	0.20537
243.00	0.20397
244.00	0.20258
245.00	0.20145
246.00	0.20066
247.00	0.20050
248.00	0.20105
249.00	0.20204
250.00	0.20377
251.00	0.20572
252.00	0.20760
253.00	0.20965
254.00	0.21167
255.00	0.21385
256.00	0.21624
257.00	0.21819
258.00	0.21981
259.00	0.22116
260.00	0.22205
261.00	0.22283
262.00	0.22365
263.00	0.22369
264.00	0.22307
265.00	0.22203
266.00	0.21958
267.00	0.21687
268.00	0.21373
269.00	0.21003
270.00	0.20540
271.00	0.20005
272.00	0.19401
273.00	0.18826
274.00	0.18266
275.00	0.17678
276.00	0.17074
277.00	0.16480
278.00	0.15857
279.00	0.15226
280.00	0.14608
281.00	0.14012
282.00	0.13444
283.00	0.12924
284.00	0.12439
285.00	0.11955
286.00	0.11578
287.00	0.11274
288.00	0.11079
289.00	0.10943
290.00	0.10845
291.00	0.10779
292.00	0.10727
293.00	0.10712
294.00	0.10710
295.00	0.10719
296.00	0.10720
297.00	0.10735
298.00	0.10724
299.00	0.10702
300.00	0.10699
301.00	0.10701
302.00	0.10698
303.00	0.10731
304.00	0.10723
305.00	0.10671
306.00	0.10659
307.00	0.10667
308.00	0.10686
309.00	0.10692
310.00	0.10702
311.00	0.10695
312.00	0.10701
313.00	0.10707
314.00	0.10734
315.00	0.10784
316.00	0.10844
317.00	0.10883
318.00	0.10911
319.00	0.10999
320.00	0.11060
321.00	0.11188
322.00	0.11318
323.00	0.11428
324.00	0.11575
325.00	0.11735
326.00	0.11885
327.00	0.12103
328.00	0.12325
329.00	0.12583
330.00	0.12816
331.00	0.13045
332.00	0.13365
333.00	0.13668
334.00	0.14019
335.00	0.14375
336.00	0.14725
337.00	0.15113
338.00	0.15497
339.00	0.15910
340.00	0.16355
341.00	0.16810
342.00	0.17295
343.00	0.17723
344.00	0.18196
345.00	0.18648
346.00	0.19133
347.00	0.19629
348.00	0.20137
349.00	0.20667
350.00	0.21207
351.00	0.21676
352.00	0.22186
353.00	0.22768
354.00	0.23313
355.00	0.23862
356.00	0.24445
357.00	0.24983
358.00	0.25489
359.00	0.26080
360.00	0.26719
361.00	0.27354
362.00	0.28009
363.00	0.28624
364.00	0.29273
365.00	0.29945
366.00	0.30683
367.00	0.31478
368.00	0.32244
369.00	0.33051
370.00	0.33846
371.00	0.34594
372.00	0.35406
373.00	0.36357
374.00	0.37316
375.00	0.38250
376.00	0.39150
377.00	0.40051
378.00	0.41068
379.00	0.42127
380.00	0.43192
381.00	0.44394
382.00	0.45566
383.00	0.46717
384.00	0.47895
385.00	0.49252
386.00	0.50691
387.00	0.52094
388.00	0.53556
389.00	0.54890
390.00	0.56233
391.00	0.57700
392.00	0.59418
393.00	0.60896
394.00	0.62367
395.00	0.63818
396.00	0.65198
397.00	0.66678
398.00	0.68242
399.00	0.69657
400.00	0.71020
401.00	0.72389
402.00	0.73796
403.00	0.75351
404.00	0.76956
405.00	0.78451
406.00	0.80010
407.00	0.81646
408.00	0.83278
409.00	0.84717
410.00	0.86276
411.00	0.87871
412.00	0.89519
413.00	0.91118
414.00	0.92395
415.00	0.93552
416.00	0.94688
417.00	0.95899
418.00	0.96830
419.00	0.97923
420.00	0.98673
421.00	0.98719
422.00	0.99052
423.00	0.99255
424.00	0.99761
425.00	1.00000
426.00	0.99696
427.00	0.99385
428.00	0.99241
429.00	0.99213
430.00	0.99199
431.00	0.99155
432.00	0.98861
433.00	0.98488
434.00	0.98142
435.00	0.97652
436.00	0.97138
437.00	0.96953
438.00	0.96441
439.00	0.95758
440.00	0.95103
441.00	0.93811
442.00	0.92810
443.00	0.91833
444.00	0.90583
445.00	0.89395
446.00	0.87699
447.00	0.85668
448.00	0.83752
449.00	0.81768
450.00	0.79798
451.00	0.77846
452.00	0.75574
453.00	0.73165
454.00	0.70661
455.00	0.68664
456.00	0.66412
457.00	0.64040
458.00	0.61723
459.00	0.59479
460.00	0.57159
461.00	0.54643
462.00	0.52443
463.00	0.50015
464.00	0.47556
465.00	0.45254
466.00	0.43000
467.00	0.40630
468.00	0.38247
469.00	0.36006
470.00	0.33749
471.00	0.31500
472.00	0.29212
473.00	0.27058
474.00	0.25112
475.00	0.23160
476.00	0.21413
477.00	0.19710
478.00	0.18014
479.00	0.16422
480.00	0.14923
481.00	0.13606
482.00	0.12357
483.00	0.11187
484.00	0.10097
485.00	0.087455
486.00	0.081053
487.00	0.075671
488.00	0.067499
489.00	0.059971
490.00	0.054189
491.00	0.048072
492.00	0.042966
493.00	0.038304
494.00	0.034722
495.00	0.030710
496.00	0.027506
497.00	0.025484
498.00	0.022444
499.00	0.019125
500.00	0.017308
501.00	0.015554
502.00	0.014441
503.00	0.012653
504.00	0.012058
505.00	0.010117
506.00	0.0091676
507.00	0.0085491
508.00	0.0079957
509.00	0.0071302
510.00	0.0062376
511.00	0.0053099
512.00	0.0048912
513.00	0.0046999
514.00	0.0044898
515.00	0.0049623
516.00	0.0037895
517.00	0.0036122
518.00	0.0031509
519.00	0.0033848
520.00	0.0029544
521.00	0.0032174
522.00	0.0030765
523.00	0.0030761
524.00	0.0024614
525.00	0.0022129
526.00	0.0022200
527.00	0.0030438
528.00	0.0025166
529.00	0.0023000
530.00	0.0011482
531.00	0.0016740
532.00	0.0017086
533.00	0.0021334
534.00	0.0018976
535.00	0.0021465
536.00	0.0019631
537.00	0.0016057
538.00	0.0018429
539.00	0.0023248
540.00	0.0020188
541.00	0.0019603
542.00	0.0018363
543.00	0.0017011
544.00	0.0016015
545.00	0.0017938
546.00	0.0019781
547.00	0.0019683
548.00	0.0015159
549.00	0.0011093
550.00	0.0017021
551.00	0.0018172
552.00	0.0022625
553.00	0.0019814
554.00	0.0020740
555.00	0.0016829
556.00	0.0012029
557.00	0.0014869
558.00	0.0017269
559.00	0.0018406
560.00	0.0020052
561.00	0.0017924
562.00	0.0014401
563.00	0.0015346
564.00	0.0016029
565.00	0.0013760
566.00	0.0018696
567.00	0.0015098
568.00	0.0014462
569.00	0.0011917
570.00	0.0014420
571.00	0.0016113
572.00	0.0016647
573.00	0.0014644
574.00	0.0011837
575.00	0.0013447
576.00	0.0014654
577.00	0.0015201
578.00	0.0015140
579.00	0.0014452
580.00	0.0013447
581.00	0.0013423
582.00	0.0013339
583.00	0.0014831
584.00	0.0013568
585.00	0.0014148
586.00	0.0015861
587.00	0.0015552
588.00	0.0013138
589.00	0.0015688
590.00	0.0014593
591.00	0.0015444
592.00	0.0015070
593.00	0.0013882
594.00	0.0013498
595.00	0.0014593
596.00	0.0015903
597.00	0.0016240
598.00	0.0014752
599.00	0.0013512
600.00	0.0013858
