Wavelength (nm)	F14 ems
460.00	0.0038527
460.50	0.0046536
461.00	0.0052137
461.50	0.0061719
462.00	0.0069452
462.50	0.0081265
463.00	0.0089897
463.50	0.010226
464.00	0.011431
464.50	0.013068
465.00	0.014178
465.50	0.015968
466.00	0.017551
466.50	0.019759
467.00	0.021317
467.50	0.023857
468.00	0.026306
468.50	0.029184
469.00	0.031442
469.50	0.034812
470.00	0.038119
470.50	0.041851
471.00	0.044818
471.50	0.049482
472.00	0.053923
472.50	0.059188
473.00	0.063400
473.50	0.069580
474.00	0.075554
474.50	0.082462
475.00	0.088100
475.50	0.096668
476.00	0.10408
476.50	0.11424
477.00	0.12095
477.50	0.13244
478.00	0.14111
478.50	0.15428
479.00	0.16286
479.50	0.17623
480.00	0.18767
480.50	0.20220
481.00	0.21349
481.50	0.22741
482.00	0.24036
482.50	0.25767
483.00	0.27038
483.50	0.28681
484.00	0.30124
484.50	0.31897
485.00	0.33258
485.50	0.34925
486.00	0.36342
486.50	0.38202
487.00	0.39561
487.50	0.41208
488.00	0.42749
488.50	0.44610
489.00	0.45862
489.50	0.47652
490.00	0.49101
490.50	0.51020
491.00	0.52281
491.50	0.54043
492.00	0.55606
492.50	0.57362
493.00	0.58645
493.50	0.60362
494.00	0.61876
494.50	0.63415
495.00	0.64603
495.50	0.66220
496.00	0.67645
496.50	0.69110
497.00	0.70293
497.50	0.71694
498.00	0.73038
498.50	0.74433
499.00	0.75500
499.50	0.76783
500.00	0.77970
500.50	0.79271
501.00	0.80088
501.50	0.81390
502.00	0.82363
502.50	0.83479
503.00	0.84305
503.50	0.85328
504.00	0.86170
504.50	0.87073
505.00	0.87728
505.50	0.88530
506.00	0.89191
506.50	0.89932
507.00	0.90539
507.50	0.91155
508.00	0.91688
508.50	0.92279
509.00	0.92696
509.50	0.93138
510.00	0.93579
510.50	0.94024
511.00	0.94392
511.50	0.94776
512.00	0.95157
512.50	0.95524
513.00	0.95810
513.50	0.96084
514.00	0.96409
514.50	0.96625
515.00	0.96864
515.50	0.97147
516.00	0.97330
516.50	0.97605
517.00	0.97820
517.50	0.98004
518.00	0.98154
518.50	0.98301
519.00	0.98469
519.50	0.98618
520.00	0.98707
520.50	0.98836
521.00	0.98991
521.50	0.99027
522.00	0.99162
522.50	0.99235
523.00	0.99321
523.50	0.99375
524.00	0.99439
524.50	0.99467
525.00	0.99563
525.50	0.99635
526.00	0.99713
526.50	0.99717
527.00	0.99760
527.50	0.99802
528.00	0.99831
528.50	0.99839
529.00	0.99890
529.50	0.99908
530.00	0.99959
530.50	0.99916
531.00	1.0000
531.50	0.99963
532.00	0.99975
532.50	0.99931
533.00	0.99933
533.50	0.99933
534.00	0.99948
534.50	0.99815
535.00	0.99811
535.50	0.99791
536.00	0.99842
536.50	0.99774
537.00	0.99798
537.50	0.99674
538.00	0.99655
538.50	0.99539
539.00	0.99543
539.50	0.99430
540.00	0.99340
540.50	0.99137
541.00	0.99099
541.50	0.98865
542.00	0.98714
542.50	0.98524
543.00	0.98413
543.50	0.98178
544.00	0.97945
544.50	0.97719
545.00	0.97512
545.50	0.97269
546.00	0.97093
546.50	0.96762
547.00	0.96600
547.50	0.96257
548.00	0.95975
548.50	0.95648
549.00	0.95401
549.50	0.94972
550.00	0.94698
550.50	0.94223
551.00	0.93967
551.50	0.93563
552.00	0.93204
552.50	0.92687
553.00	0.92379
553.50	0.91927
554.00	0.91470
554.50	0.90918
555.00	0.90565
555.50	0.90115
556.00	0.89687
556.50	0.89116
557.00	0.88858
557.50	0.88316
558.00	0.87872
558.50	0.87294
559.00	0.86991
559.50	0.86405
560.00	0.86024
560.50	0.85380
561.00	0.85086
561.50	0.84477
562.00	0.84031
562.50	0.83425
563.00	0.83102
563.50	0.82432
564.00	0.81978
564.50	0.81333
565.00	0.81008
565.50	0.80379
566.00	0.79910
566.50	0.79368
567.00	0.78995
567.50	0.78379
568.00	0.77919
568.50	0.77326
569.00	0.76966
569.50	0.76379
570.00	0.75924
570.50	0.75340
571.00	0.75006
571.50	0.74419
572.00	0.73928
572.50	0.73341
573.00	0.73031
573.50	0.72365
574.00	0.71949
574.50	0.71331
575.00	0.70896
575.50	0.70380
576.00	0.69787
576.50	0.69232
577.00	0.68767
577.50	0.68176
578.00	0.67719
578.50	0.67065
579.00	0.66663
579.50	0.66097
580.00	0.65614
580.50	0.65046
581.00	0.64710
581.50	0.64172
582.00	0.63739
582.50	0.63129
583.00	0.62824
583.50	0.62257
584.00	0.61836
584.50	0.61282
585.00	0.61002
585.50	0.60399
586.00	0.59966
586.50	0.59434
587.00	0.59055
587.50	0.58472
588.00	0.58008
588.50	0.57483
589.00	0.57125
589.50	0.56549
590.00	0.56123
590.50	0.55611
591.00	0.55302
591.50	0.54814
592.00	0.54328
592.50	0.53830
593.00	0.53446
593.50	0.52895
594.00	0.52433
594.50	0.51947
595.00	0.51628
595.50	0.51109
596.00	0.50644
596.50	0.50199
597.00	0.49848
597.50	0.49368
598.00	0.48940
598.50	0.48381
599.00	0.48004
599.50	0.47547
600.00	0.47037
600.50	0.46525
601.00	0.46118
601.50	0.45712
602.00	0.45302
602.50	0.44755
603.00	0.44421
603.50	0.43961
604.00	0.43538
604.50	0.42989
605.00	0.42778
605.50	0.42368
606.00	0.41956
606.50	0.41514
607.00	0.41231
607.50	0.40790
608.00	0.40405
608.50	0.39968
609.00	0.39667
609.50	0.39139
610.00	0.38819
610.50	0.38370
611.00	0.38087
611.50	0.37641
612.00	0.37269
612.50	0.36836
613.00	0.36567
613.50	0.36076
614.00	0.35772
614.50	0.35362
615.00	0.35115
615.50	0.34681
616.00	0.34334
616.50	0.33935
617.00	0.33645
617.50	0.33271
618.00	0.32878
618.50	0.32540
619.00	0.32282
619.50	0.31857
620.00	0.31574
620.50	0.31232
621.00	0.31014
621.50	0.30636
622.00	0.30367
622.50	0.30048
623.00	0.29726
623.50	0.29449
624.00	0.29051
624.50	0.28663
625.00	0.28392
625.50	0.28052
626.00	0.27687
626.50	0.27249
627.00	0.26996
627.50	0.26605
628.00	0.26296
628.50	0.25914
629.00	0.25737
629.50	0.25380
630.00	0.25108
630.50	0.24732
631.00	0.24563
631.50	0.24274
632.00	0.24040
632.50	0.23697
633.00	0.23530
633.50	0.23237
634.00	0.23006
634.50	0.22678
635.00	0.22504
635.50	0.22199
636.00	0.21971
636.50	0.21671
637.00	0.21471
637.50	0.21137
638.00	0.20895
638.50	0.20650
639.00	0.20446
639.50	0.20164
640.00	0.19962
640.50	0.19694
641.00	0.19511
641.50	0.19233
642.00	0.19038
642.50	0.18807
643.00	0.18599
643.50	0.18402
644.00	0.18194
644.50	0.17991
645.00	0.17797
645.50	0.17563
646.00	0.17421
646.50	0.17190
647.00	0.17027
647.50	0.16818
648.00	0.16620
648.50	0.16371
649.00	0.16224
649.50	0.15989
650.00	0.15790
650.50	0.15587
651.00	0.15439
651.50	0.15280
652.00	0.15083
652.50	0.14876
653.00	0.14796
653.50	0.14589
654.00	0.14450
654.50	0.14251
655.00	0.14114
655.50	0.13960
656.00	0.13784
656.50	0.13619
657.00	0.13512
657.50	0.13345
658.00	0.13177
658.50	0.12982
659.00	0.12896
659.50	0.12695
660.00	0.12589
660.50	0.12405
661.00	0.12243
661.50	0.12092
662.00	0.11957
662.50	0.11794
663.00	0.11677
663.50	0.11497
664.00	0.11378
664.50	0.11218
665.00	0.11116
665.50	0.10956
666.00	0.10855
666.50	0.10726
667.00	0.10629
667.50	0.10501
668.00	0.10350
668.50	0.10256
669.00	0.10142
669.50	0.10006
670.00	0.098596
670.50	0.097401
671.00	0.096504
671.50	0.095048
672.00	0.094002
672.50	0.092852
673.00	0.091751
673.50	0.090598
674.00	0.089395
674.50	0.087883
675.00	0.086938
675.50	0.085813
676.00	0.084910
676.50	0.083381
677.00	0.082506
677.50	0.081486
678.00	0.080321
678.50	0.079250
679.00	0.078516
679.50	0.077540
680.00	0.076355
680.50	0.075149
681.00	0.074683
681.50	0.073706
682.00	0.072485
682.50	0.071482
683.00	0.070887
683.50	0.069711
684.00	0.068750
684.50	0.067758
685.00	0.067006
685.50	0.066073
686.00	0.065643
686.50	0.064566
687.00	0.063713
687.50	0.062929
688.00	0.062238
688.50	0.061395
689.00	0.060923
689.50	0.060218
690.00	0.059256
690.50	0.058643
691.00	0.057717
691.50	0.057235
692.00	0.056570
692.50	0.055752
693.00	0.055148
693.50	0.054430
694.00	0.053862
694.50	0.053061
695.00	0.052403
695.50	0.051791
696.00	0.051178
696.50	0.050396
697.00	0.049755
697.50	0.049227
698.00	0.048524
698.50	0.047830
699.00	0.047280
699.50	0.046700
700.00	0.046181
700.50	0.045465
701.00	0.044911
701.50	0.044284
702.00	0.043973
702.50	0.043295
703.00	0.042982
703.50	0.042408
704.00	0.041670
704.50	0.041086
705.00	0.040581
705.50	0.040214
706.00	0.039581
706.50	0.039112
707.00	0.038645
707.50	0.038019
708.00	0.037530
708.50	0.037160
709.00	0.036437
709.50	0.036032
710.00	0.035561
710.50	0.035067
711.00	0.034762
711.50	0.033899
712.00	0.033985
712.50	0.033483
713.00	0.033076
713.50	0.032728
714.00	0.032088
714.50	0.031735
715.00	0.031316
715.50	0.030746
716.00	0.030602
716.50	0.030011
717.00	0.029576
717.50	0.029284
718.00	0.028847
718.50	0.028498
719.00	0.028150
719.50	0.027800
720.00	0.027369
720.50	0.027007
721.00	0.026676
721.50	0.026255
722.00	0.025981
722.50	0.025668
723.00	0.025244
723.50	0.024826
724.00	0.024748
724.50	0.024049
725.00	0.023914
725.50	0.023506
726.00	0.023378
726.50	0.022814
727.00	0.022876
727.50	0.022258
728.00	0.021945
728.50	0.021922
729.00	0.021713
729.50	0.021196
730.00	0.021225
730.50	0.020582
731.00	0.020337
731.50	0.020020
732.00	0.019731
732.50	0.019551
733.00	0.019438
733.50	0.019136
734.00	0.018674
734.50	0.018402
735.00	0.018112
735.50	0.017921
736.00	0.017765
736.50	0.017611
737.00	0.017186
737.50	0.016999
738.00	0.016944
738.50	0.016745
739.00	0.016238
739.50	0.016165
740.00	0.015656
740.50	0.015649
741.00	0.015652
741.50	0.015359
742.00	0.015156
742.50	0.014868
743.00	0.014926
743.50	0.014522
744.00	0.014304
744.50	0.014161
745.00	0.014065
745.50	0.013539
746.00	0.013521
746.50	0.013372
747.00	0.013092
747.50	0.012874
748.00	0.012817
748.50	0.012264
749.00	0.012641
749.50	0.012095
750.00	0.012010
750.50	0.011885
751.00	0.011811
751.50	0.011440
752.00	0.011240
752.50	0.011078
753.00	0.010866
753.50	0.010851
754.00	0.010665
754.50	0.010401
755.00	0.010377
755.50	0.0098583
756.00	0.0099615
756.50	0.0098920
757.00	0.0096107
757.50	0.0094989
758.00	0.0095262
758.50	0.0093373
759.00	0.0092422
759.50	0.0090485
760.00	0.0087296
760.50	0.0086395
761.00	0.0085177
761.50	0.0082755
762.00	0.0085575
762.50	0.0083537
763.00	0.0081938
763.50	0.0081118
764.00	0.0081072
764.50	0.0077732
765.00	0.0076628
765.50	0.0075644
766.00	0.0076008
766.50	0.0074174
767.00	0.0072635
767.50	0.0071851
768.00	0.0070148
768.50	0.0068944
769.00	0.0068325
769.50	0.0066286
770.00	0.0065032
770.50	0.0063228
771.00	0.0063603
771.50	0.0064202
772.00	0.0062096
772.50	0.0060738
773.00	0.0060881
773.50	0.0059662
774.00	0.0058301
774.50	0.0057836
775.00	0.0056769
775.50	0.0056733
776.00	0.0056081
776.50	0.0054939
777.00	0.0054288
777.50	0.0053426
778.00	0.0051477
778.50	0.0052696
779.00	0.0051824
779.50	0.0049936
780.00	0.0050201
780.50	0.0048683
781.00	0.0048282
781.50	0.0047188
782.00	0.0047832
782.50	0.0045650
783.00	0.0046289
783.50	0.0044272
784.00	0.0043723
784.50	0.0042242
785.00	0.0043167
785.50	0.0041741
786.00	0.0042052
786.50	0.0040751
787.00	0.0040456
787.50	0.0038833
788.00	0.0037584
788.50	0.0036444
789.00	0.0038127
789.50	0.0037266
790.00	0.0036947
790.50	0.0036439
791.00	0.0036643
791.50	0.0035328
792.00	0.0034627
792.50	0.0034721
793.00	0.0032357
793.50	0.0034312
794.00	0.0033315
794.50	0.0031514
795.00	0.0029986
795.50	0.0031358
796.00	0.0031984
796.50	0.0030292
797.00	0.0028271
797.50	0.0030313
798.00	0.0028181
798.50	0.0028100
799.00	0.0027330
799.50	0.0027645
800.00	0.0025331
