Wavelength (nm)	I03 ems
410.00	0.0033144
410.50	0.0020176
411.00	0.0019526
411.50	0.0020737
412.00	0.0021287
412.50	0.0022252
413.00	0.0023373
413.50	0.0023727
414.00	0.0024570
414.50	0.0026014
415.00	0.0026331
415.50	0.0027250
416.00	0.0027764
416.50	0.0027749
417.00	0.0027750
417.50	0.0028411
418.00	0.0028757
418.50	0.0029326
419.00	0.0029582
419.50	0.0031779
420.00	0.0032978
420.50	0.0034424
421.00	0.0035912
421.50	0.0037638
422.00	0.0040087
422.50	0.0041220
423.00	0.0043735
423.50	0.0043602
424.00	0.0045146
424.50	0.0046115
425.00	0.0045588
425.50	0.0044464
426.00	0.0046832
426.50	0.0046916
427.00	0.0048181
427.50	0.0048378
428.00	0.0050764
428.50	0.0054147
429.00	0.0054964
429.50	0.0057474
430.00	0.0059098
430.50	0.0060776
431.00	0.0063948
431.50	0.0066676
432.00	0.0069278
432.50	0.0073689
433.00	0.0074711
433.50	0.0078234
434.00	0.0081175
434.50	0.0083022
435.00	0.0087528
435.50	0.0091768
436.00	0.0091215
436.50	0.0097068
437.00	0.0099023
437.50	0.010287
438.00	0.010528
438.50	0.010900
439.00	0.011145
439.50	0.011548
440.00	0.011955
440.50	0.012267
441.00	0.012751
441.50	0.013158
442.00	0.013417
442.50	0.013892
443.00	0.014335
443.50	0.014797
444.00	0.014980
444.50	0.015682
445.00	0.015925
445.50	0.016632
446.00	0.017099
446.50	0.017984
447.00	0.018470
447.50	0.019599
448.00	0.020103
448.50	0.021889
449.00	0.022762
449.50	0.024413
450.00	0.025038
450.50	0.026602
451.00	0.027197
451.50	0.028369
452.00	0.029090
452.50	0.029621
453.00	0.029786
453.50	0.030209
454.00	0.030006
454.50	0.030509
455.00	0.031071
455.50	0.031214
456.00	0.031851
456.50	0.032618
457.00	0.033786
457.50	0.035434
458.00	0.037003
458.50	0.038606
459.00	0.039453
459.50	0.041267
460.00	0.042611
460.50	0.044830
461.00	0.046861
461.50	0.049273
462.00	0.050311
462.50	0.052635
463.00	0.054569
463.50	0.057113
464.00	0.059185
464.50	0.061732
465.00	0.064224
465.50	0.067556
466.00	0.069993
466.50	0.074260
467.00	0.076525
467.50	0.081448
468.00	0.084568
468.50	0.088993
469.00	0.092531
469.50	0.098760
470.00	0.10158
470.50	0.10744
471.00	0.11130
471.50	0.11961
472.00	0.12327
472.50	0.13020
473.00	0.13504
473.50	0.14412
474.00	0.14903
474.50	0.15882
475.00	0.16462
475.50	0.17440
476.00	0.18071
476.50	0.19085
477.00	0.19926
477.50	0.21122
478.00	0.21801
478.50	0.22874
479.00	0.23897
479.50	0.25210
480.00	0.26044
480.50	0.27398
481.00	0.28430
481.50	0.29901
482.00	0.30926
482.50	0.32466
483.00	0.33425
483.50	0.34974
484.00	0.35901
484.50	0.37446
485.00	0.38632
485.50	0.40043
486.00	0.41029
486.50	0.42372
487.00	0.43615
487.50	0.45311
488.00	0.46164
488.50	0.47787
489.00	0.48691
489.50	0.50271
490.00	0.51384
490.50	0.52989
491.00	0.54082
491.50	0.55857
492.00	0.56670
492.50	0.58463
493.00	0.59535
493.50	0.61150
494.00	0.62014
494.50	0.63584
495.00	0.64471
495.50	0.66111
496.00	0.67213
496.50	0.68490
497.00	0.69531
497.50	0.71221
498.00	0.72124
498.50	0.73488
499.00	0.74469
499.50	0.76109
500.00	0.76707
500.50	0.78129
501.00	0.79030
501.50	0.80685
502.00	0.81169
502.50	0.82482
503.00	0.83308
503.50	0.84684
504.00	0.85197
504.50	0.86425
505.00	0.87219
505.50	0.88150
506.00	0.88840
506.50	0.89811
507.00	0.90193
507.50	0.91322
508.00	0.91908
508.50	0.92322
509.00	0.93072
509.50	0.93819
510.00	0.94157
510.50	0.94566
511.00	0.95108
511.50	0.95447
512.00	0.96025
512.50	0.96679
513.00	0.96902
513.50	0.97058
514.00	0.97311
514.50	0.97952
515.00	0.98198
515.50	0.98412
516.00	0.98620
516.50	0.99183
517.00	0.99296
517.50	0.99362
518.00	0.99341
518.50	0.99518
519.00	0.99739
519.50	0.99926
520.00	0.99951
520.50	0.99611
521.00	0.99790
521.50	1.0000
522.00	0.99745
522.50	0.99819
523.00	0.99722
523.50	0.99589
524.00	0.99618
524.50	0.99283
525.00	0.99236
525.50	0.98958
526.00	0.99042
526.50	0.98627
527.00	0.98580
527.50	0.98078
528.00	0.98169
528.50	0.97731
529.00	0.97397
529.50	0.97062
530.00	0.96837
530.50	0.96439
531.00	0.96007
531.50	0.95484
532.00	0.95430
532.50	0.94854
533.00	0.94681
533.50	0.94011
534.00	0.94083
534.50	0.93380
535.00	0.93124
535.50	0.92716
536.00	0.92021
536.50	0.91860
537.00	0.91555
537.50	0.91094
538.00	0.90518
538.50	0.90089
539.00	0.89824
539.50	0.89185
540.00	0.88701
540.50	0.88115
541.00	0.87669
541.50	0.87096
542.00	0.86861
542.50	0.86101
543.00	0.85626
543.50	0.85136
544.00	0.84836
544.50	0.84177
545.00	0.83601
545.50	0.82919
546.00	0.82411
546.50	0.81859
547.00	0.81453
547.50	0.80695
548.00	0.80179
548.50	0.79719
549.00	0.79239
549.50	0.78581
550.00	0.78231
550.50	0.77522
551.00	0.76838
551.50	0.75964
552.00	0.75715
552.50	0.74991
553.00	0.74128
553.50	0.73704
554.00	0.73133
554.50	0.72571
555.00	0.71880
555.50	0.71033
556.00	0.70929
556.50	0.70275
557.00	0.69954
557.50	0.68872
558.00	0.68618
558.50	0.68061
559.00	0.67420
559.50	0.66499
560.00	0.66441
560.50	0.65649
561.00	0.65332
561.50	0.64302
562.00	0.64133
562.50	0.63452
563.00	0.63124
563.50	0.61979
564.00	0.61761
564.50	0.61001
565.00	0.60633
565.50	0.59916
566.00	0.59485
566.50	0.58733
567.00	0.58582
567.50	0.57515
568.00	0.57457
568.50	0.56800
569.00	0.56461
569.50	0.55604
570.00	0.55321
570.50	0.54618
571.00	0.54340
571.50	0.53817
572.00	0.53289
572.50	0.52625
573.00	0.52141
573.50	0.51608
574.00	0.50994
574.50	0.50374
575.00	0.50031
575.50	0.49337
576.00	0.49064
576.50	0.48478
577.00	0.47825
577.50	0.47343
578.00	0.46984
578.50	0.46200
579.00	0.45689
579.50	0.45109
580.00	0.44714
580.50	0.44262
581.00	0.43986
581.50	0.43379
582.00	0.42936
582.50	0.42428
583.00	0.42098
583.50	0.41459
584.00	0.41251
584.50	0.40795
585.00	0.40449
585.50	0.39818
586.00	0.39579
586.50	0.38988
587.00	0.38719
587.50	0.37949
588.00	0.37922
588.50	0.37286
589.00	0.36737
589.50	0.36459
590.00	0.36146
590.50	0.35623
591.00	0.35333
591.50	0.34758
592.00	0.34499
592.50	0.34091
593.00	0.33933
593.50	0.33197
594.00	0.33054
594.50	0.32529
595.00	0.32306
595.50	0.31800
596.00	0.31532
596.50	0.31151
597.00	0.30878
597.50	0.30277
598.00	0.30008
598.50	0.29662
599.00	0.29318
599.50	0.28878
600.00	0.28708
600.50	0.28287
601.00	0.28057
601.50	0.27531
602.00	0.27258
602.50	0.26864
603.00	0.26617
603.50	0.26188
604.00	0.25950
604.50	0.25518
605.00	0.25402
605.50	0.25062
606.00	0.24739
606.50	0.24539
607.00	0.24111
607.50	0.23798
608.00	0.23616
608.50	0.23385
609.00	0.23216
609.50	0.22756
610.00	0.22498
610.50	0.22242
611.00	0.21982
611.50	0.21451
612.00	0.21434
612.50	0.21238
613.00	0.20961
613.50	0.20733
614.00	0.20434
614.50	0.20134
615.00	0.19938
615.50	0.19656
616.00	0.19504
616.50	0.19151
617.00	0.19077
617.50	0.18890
618.00	0.18674
618.50	0.18213
619.00	0.18217
619.50	0.17808
620.00	0.17792
620.50	0.17490
621.00	0.17380
621.50	0.17075
622.00	0.16960
622.50	0.16617
623.00	0.16525
623.50	0.16328
624.00	0.16142
624.50	0.15891
625.00	0.15621
625.50	0.15377
626.00	0.15338
626.50	0.14907
627.00	0.14801
627.50	0.14538
628.00	0.14490
628.50	0.14247
629.00	0.14059
629.50	0.13949
630.00	0.13878
630.50	0.13521
631.00	0.13414
631.50	0.13224
632.00	0.13191
632.50	0.13020
633.00	0.12935
633.50	0.12655
634.00	0.12658
634.50	0.12410
635.00	0.12237
635.50	0.12014
636.00	0.11956
636.50	0.11835
637.00	0.11666
637.50	0.11615
638.00	0.11339
638.50	0.11112
639.00	0.11101
639.50	0.10905
640.00	0.10787
640.50	0.10650
641.00	0.10547
641.50	0.10372
642.00	0.10201
642.50	0.10262
643.00	0.10045
643.50	0.098826
644.00	0.099122
644.50	0.096847
645.00	0.095299
645.50	0.094092
646.00	0.093878
646.50	0.092880
647.00	0.091569
647.50	0.090875
648.00	0.088448
648.50	0.087716
649.00	0.086496
649.50	0.085292
650.00	0.084444
650.50	0.082820
651.00	0.081697
651.50	0.080494
652.00	0.079334
652.50	0.078592
653.00	0.079286
653.50	0.077942
654.00	0.077261
654.50	0.076155
655.00	0.074184
655.50	0.072827
656.00	0.073312
656.50	0.071827
657.00	0.070868
657.50	0.070633
658.00	0.069824
658.50	0.070232
659.00	0.067476
659.50	0.066677
660.00	0.066187
660.50	0.064883
661.00	0.065437
661.50	0.063407
662.00	0.063274
662.50	0.061290
663.00	0.061947
663.50	0.061312
664.00	0.059616
664.50	0.058941
665.00	0.057453
665.50	0.057655
666.00	0.057086
666.50	0.055400
667.00	0.056055
667.50	0.054543
668.00	0.055174
668.50	0.054917
669.00	0.053370
669.50	0.052435
670.00	0.053044
670.50	0.051105
671.00	0.051560
671.50	0.050000
672.00	0.049561
672.50	0.049758
673.00	0.048488
673.50	0.047480
674.00	0.048062
674.50	0.046494
675.00	0.045810
675.50	0.044997
676.00	0.045076
676.50	0.045551
677.00	0.044918
677.50	0.044262
678.00	0.043088
678.50	0.042731
679.00	0.041436
679.50	0.042327
680.00	0.041311
680.50	0.040177
681.00	0.040220
681.50	0.039345
682.00	0.038859
682.50	0.039125
683.00	0.038106
683.50	0.037334
684.00	0.038105
684.50	0.036889
685.00	0.037207
685.50	0.035818
686.00	0.036119
686.50	0.035803
687.00	0.035390
687.50	0.034591
688.00	0.035056
688.50	0.034186
689.00	0.033717
689.50	0.032842
690.00	0.033000
690.50	0.033078
691.00	0.031862
691.50	0.031196
692.00	0.032208
692.50	0.031182
693.00	0.031237
693.50	0.030489
694.00	0.030155
694.50	0.029939
695.00	0.029369
695.50	0.028964
696.00	0.029004
696.50	0.029058
697.00	0.028480
697.50	0.027386
698.00	0.026865
698.50	0.026674
699.00	0.026609
699.50	0.026933
700.00	0.026632
700.50	0.026028
701.00	0.025846
701.50	0.025019
702.00	0.025485
702.50	0.024696
703.00	0.025654
703.50	0.023999
704.00	0.024109
704.50	0.025023
705.00	0.024352
705.50	0.024093
706.00	0.023804
706.50	0.022884
707.00	0.023025
707.50	0.022519
708.00	0.022526
708.50	0.022050
709.00	0.022439
709.50	0.022047
710.00	0.021801
710.50	0.021290
711.00	0.021253
711.50	0.021414
712.00	0.020159
712.50	0.020910
713.00	0.020015
713.50	0.020098
714.00	0.019578
714.50	0.019987
715.00	0.020305
715.50	0.018998
716.00	0.018574
716.50	0.019264
717.00	0.019544
717.50	0.018445
718.00	0.018741
718.50	0.019224
719.00	0.018413
719.50	0.018007
720.00	0.017393
720.50	0.017469
721.00	0.017443
721.50	0.017142
722.00	0.017169
722.50	0.016732
723.00	0.017122
723.50	0.016834
724.00	0.016145
724.50	0.016504
725.00	0.016727
725.50	0.016497
726.00	0.016425
726.50	0.016021
727.00	0.015609
727.50	0.015669
728.00	0.015776
728.50	0.015155
729.00	0.015543
729.50	0.015500
730.00	0.014976
730.50	0.014590
731.00	0.015244
731.50	0.015298
732.00	0.014494
732.50	0.014713
733.00	0.014226
733.50	0.013585
734.00	0.013728
734.50	0.013898
735.00	0.013512
735.50	0.013686
736.00	0.013915
736.50	0.014164
737.00	0.013010
737.50	0.012953
738.00	0.013198
738.50	0.013306
739.00	0.013451
739.50	0.013850
740.00	0.012607
740.50	0.012912
741.00	0.013400
741.50	0.012361
742.00	0.012233
742.50	0.012433
743.00	0.012624
743.50	0.012571
744.00	0.013069
744.50	0.011856
745.00	0.011486
745.50	0.011664
746.00	0.012268
746.50	0.011709
747.00	0.011757
747.50	0.011999
748.00	0.012161
748.50	0.011419
749.00	0.010888
749.50	0.011233
750.00	0.011159
