Wavelength (nm)	I18 abs N
220.00	0.35504
220.25	0.35473
220.50	0.35857
220.75	0.35470
221.00	0.35459
221.25	0.35079
221.50	0.35022
221.75	0.35267
222.00	0.35175
222.25	0.35023
222.50	0.35311
222.75	0.35230
223.00	0.35210
223.25	0.35081
223.50	0.35458
223.75	0.35331
224.00	0.35278
224.25	0.35417
224.50	0.35467
224.75	0.35653
225.00	0.35661
225.25	0.35770
225.50	0.35939
225.75	0.35607
226.00	0.35927
226.25	0.35951
226.50	0.36056
226.75	0.35895
227.00	0.35910
227.25	0.36160
227.50	0.36134
227.75	0.35747
228.00	0.35763
228.25	0.35935
228.50	0.35927
228.75	0.35581
229.00	0.35466
229.25	0.35233
229.50	0.35095
229.75	0.35082
230.00	0.34797
230.25	0.34822
230.50	0.34335
230.75	0.34261
231.00	0.33854
231.25	0.33823
231.50	0.33582
231.75	0.33204
232.00	0.33155
232.25	0.33086
232.50	0.32639
232.75	0.32456
233.00	0.32062
233.25	0.31962
233.50	0.31765
233.75	0.31584
234.00	0.31488
234.25	0.31430
234.50	0.31119
234.75	0.30838
235.00	0.30710
235.25	0.30442
235.50	0.30346
235.75	0.30087
236.00	0.30090
236.25	0.29934
236.50	0.29673
236.75	0.29364
237.00	0.29391
237.25	0.29159
237.50	0.28944
237.75	0.28712
238.00	0.28590
238.25	0.28611
238.50	0.28177
238.75	0.28124
239.00	0.27996
239.25	0.27677
239.50	0.27629
239.75	0.27307
240.00	0.27357
240.25	0.26913
240.50	0.26786
240.75	0.26597
241.00	0.26397
241.25	0.26186
241.50	0.26095
241.75	0.25717
242.00	0.25499
242.25	0.25255
242.50	0.25099
242.75	0.24945
243.00	0.24867
243.25	0.24770
243.50	0.24625
243.75	0.24418
244.00	0.24337
244.25	0.24238
244.50	0.24075
244.75	0.24167
245.00	0.24052
245.25	0.24200
245.50	0.24027
245.75	0.24101
246.00	0.24144
246.25	0.24201
246.50	0.24187
246.75	0.24239
247.00	0.24286
247.25	0.24423
247.50	0.24330
247.75	0.24494
248.00	0.24454
248.25	0.24456
248.50	0.24445
248.75	0.24528
249.00	0.24332
249.25	0.24517
249.50	0.24671
249.75	0.24683
250.00	0.24698
250.25	0.24446
250.50	0.24495
250.75	0.24596
251.00	0.24575
251.25	0.24731
251.50	0.24753
251.75	0.24898
252.00	0.24954
252.25	0.24956
252.50	0.25152
252.75	0.25149
253.00	0.25332
253.25	0.25718
253.50	0.26013
253.75	0.26113
254.00	0.26415
254.25	0.26647
254.50	0.26761
254.75	0.27120
255.00	0.27245
255.25	0.27679
255.50	0.27725
255.75	0.28187
256.00	0.28539
256.25	0.29001
256.50	0.29179
256.75	0.29578
257.00	0.30061
257.25	0.30382
257.50	0.30735
257.75	0.31138
258.00	0.31617
258.25	0.31941
258.50	0.32516
258.75	0.32978
259.00	0.33495
259.25	0.34137
259.50	0.34508
259.75	0.35218
260.00	0.35570
260.25	0.36201
260.50	0.36751
260.75	0.37294
261.00	0.37891
261.25	0.38547
261.50	0.39070
261.75	0.39513
262.00	0.39972
262.25	0.40515
262.50	0.41081
262.75	0.41715
263.00	0.42020
263.25	0.42591
263.50	0.43037
263.75	0.43560
264.00	0.43778
264.25	0.44126
264.50	0.44512
264.75	0.45034
265.00	0.45402
265.25	0.45796
265.50	0.45865
265.75	0.46342
266.00	0.46670
266.25	0.46989
266.50	0.47277
266.75	0.47675
267.00	0.48007
267.25	0.48416
267.50	0.48540
267.75	0.48961
268.00	0.49083
268.25	0.49616
268.50	0.49886
268.75	0.50189
269.00	0.50425
269.25	0.50621
269.50	0.50823
269.75	0.50848
270.00	0.51022
270.25	0.51011
270.50	0.51054
270.75	0.51092
271.00	0.50828
271.25	0.50646
271.50	0.50294
271.75	0.49964
272.00	0.49438
272.25	0.49060
272.50	0.48474
272.75	0.47925
273.00	0.46860
273.25	0.46221
273.50	0.45351
273.75	0.44413
274.00	0.43441
274.25	0.42279
274.50	0.41106
274.75	0.39783
275.00	0.38194
275.25	0.36679
275.50	0.35288
275.75	0.33718
276.00	0.32506
276.25	0.31269
276.50	0.29814
276.75	0.28740
277.00	0.27484
277.25	0.26353
277.50	0.25480
277.75	0.24302
278.00	0.23384
278.25	0.22510
278.50	0.21713
278.75	0.20614
279.00	0.19883
279.25	0.19328
279.50	0.18317
279.75	0.17918
280.00	0.17211
280.25	0.16701
280.50	0.15964
280.75	0.15635
281.00	0.14929
281.25	0.14538
281.50	0.14153
281.75	0.13743
282.00	0.13285
282.25	0.12995
282.50	0.12752
282.75	0.12340
283.00	0.11832
283.25	0.11708
283.50	0.11529
283.75	0.11307
284.00	0.11073
284.25	0.10833
284.50	0.10468
284.75	0.10365
285.00	0.10222
285.25	0.10069
285.50	0.098620
285.75	0.098999
286.00	0.097185
286.25	0.095453
286.50	0.094542
286.75	0.090585
287.00	0.090899
287.25	0.089650
287.50	0.089296
287.75	0.087636
288.00	0.086773
288.25	0.086596
288.50	0.085943
288.75	0.083042
289.00	0.082728
289.25	0.084573
289.50	0.081511
289.75	0.082719
290.00	0.082840
290.25	0.083130
290.50	0.081253
290.75	0.081180
291.00	0.077852
291.25	0.078650
291.50	0.079174
291.75	0.078392
292.00	0.078150
292.25	0.078714
292.50	0.077828
292.75	0.078126
293.00	0.077538
293.25	0.078650
293.50	0.076498
293.75	0.077642
294.00	0.078529
294.25	0.076780
294.50	0.078553
294.75	0.079560
295.00	0.075837
295.25	0.078561
295.50	0.076554
295.75	0.078883
296.00	0.078440
296.25	0.082051
296.50	0.080020
296.75	0.081124
297.00	0.080826
297.25	0.080124
297.50	0.082518
297.75	0.079939
298.00	0.084331
298.25	0.083364
298.50	0.084541
298.75	0.084903
299.00	0.085492
299.25	0.087023
299.50	0.087136
299.75	0.087837
300.00	0.089449
300.25	0.091617
300.50	0.092406
300.75	0.093438
301.00	0.094059
301.25	0.093849
301.50	0.094881
301.75	0.096533
302.00	0.097717
302.25	0.098701
302.50	0.10026
302.75	0.10238
303.00	0.10181
303.25	0.10255
303.50	0.10163
303.75	0.10454
304.00	0.10330
304.25	0.10650
304.50	0.10779
304.75	0.10984
305.00	0.10927
305.25	0.11047
305.50	0.11134
305.75	0.11210
306.00	0.11289
306.25	0.11406
306.50	0.11568
306.75	0.11746
307.00	0.11749
307.25	0.11876
307.50	0.11780
307.75	0.11996
308.00	0.12241
308.25	0.12161
308.50	0.12332
308.75	0.12397
309.00	0.12566
309.25	0.12665
309.50	0.12733
309.75	0.12935
310.00	0.12562
310.25	0.13248
310.50	0.12791
310.75	0.12500
311.00	0.14275
311.25	0.13608
311.50	0.13638
311.75	0.13591
312.00	0.13783
312.25	0.12832
312.50	0.13766
312.75	0.14118
313.00	0.13984
313.25	0.14182
313.50	0.14330
313.75	0.14610
314.00	0.14512
314.25	0.14880
314.50	0.14961
314.75	0.14311
315.00	0.14722
315.25	0.15549
315.50	0.14938
315.75	0.15324
316.00	0.14643
316.25	0.14867
316.50	0.15055
316.75	0.15764
317.00	0.15432
317.25	0.15399
317.50	0.15593
317.75	0.15228
318.00	0.15133
318.25	0.14967
318.50	0.15106
318.75	0.15070
319.00	0.15519
319.25	0.15611
319.50	0.15440
319.75	0.15442
320.00	0.15554
320.25	0.14394
320.50	0.14819
320.75	0.15233
321.00	0.14935
321.25	0.14941
321.50	0.14710
321.75	0.15019
322.00	0.14700
322.25	0.14596
322.50	0.14514
322.75	0.14079
323.00	0.14110
323.25	0.14211
323.50	0.14287
323.75	0.13979
324.00	0.13924
324.25	0.13688
324.50	0.13636
324.75	0.13053
325.00	0.13101
325.25	0.13266
325.50	0.12667
325.75	0.12587
326.00	0.12309
326.25	0.11793
326.50	0.12359
326.75	0.11807
327.00	0.11973
327.25	0.11649
327.50	0.12082
327.75	0.11002
328.00	0.11318
328.25	0.11418
328.50	0.10782
328.75	0.10739
329.00	0.10707
329.25	0.10801
329.50	0.10319
329.75	0.099241
330.00	0.10093
330.25	0.10174
330.50	0.097588
330.75	0.095082
331.00	0.095275
331.25	0.093849
331.50	0.085959
331.75	0.088595
332.00	0.092213
332.25	0.094171
332.50	0.087047
332.75	0.085895
333.00	0.084944
333.25	0.081922
333.50	0.078819
333.75	0.081132
334.00	0.077425
334.25	0.077409
334.50	0.076667
334.75	0.075958
335.00	0.076224
335.25	0.070800
335.50	0.073435
335.75	0.072742
336.00	0.069817
336.25	0.070881
336.50	0.069817
336.75	0.067020
337.00	0.069221
337.25	0.068632
337.50	0.064466
337.75	0.067004
338.00	0.064514
338.25	0.064756
338.50	0.062749
338.75	0.063595
339.00	0.059614
339.25	0.064571
339.50	0.062104
339.75	0.056882
340.00	0.061484
340.25	0.057994
340.50	0.056399
340.75	0.059735
341.00	0.057398
341.25	0.054126
341.50	0.055512
341.75	0.056447
342.00	0.050056
342.25	0.053554
342.50	0.048896
342.75	0.050532
343.00	0.051491
343.25	0.055585
343.50	0.048823
343.75	0.049468
344.00	0.052990
344.25	0.051217
344.50	0.047808
344.75	0.047590
345.00	0.049911
345.25	0.046325
345.50	0.044705
345.75	0.046397
346.00	0.043077
346.25	0.047244
346.50	0.048710
346.75	0.043150
347.00	0.044060
347.25	0.045833
347.50	0.045454
347.75	0.045100
348.00	0.042948
348.25	0.046647
348.50	0.042150
348.75	0.043295
349.00	0.041876
349.25	0.042448
349.50	0.046309
349.75	0.043810
350.00	0.047227
350.25	0.043681
350.50	0.042037
350.75	0.042037
351.00	0.043867
351.25	0.045591
351.50	0.045753
351.75	0.042827
352.00	0.045132
352.25	0.041369
352.50	0.043504
352.75	0.042432
353.00	0.041159
353.25	0.040514
353.50	0.040127
353.75	0.043416
354.00	0.039724
354.25	0.041812
354.50	0.040418
354.75	0.042819
355.00	0.037081
355.25	0.040289
355.50	0.044802
355.75	0.039459
356.00	0.039257
356.25	0.044447
356.50	0.041868
356.75	0.041570
357.00	0.038645
357.25	0.041957
357.50	0.039700
357.75	0.039716
358.00	0.036058
358.25	0.037283
358.50	0.038217
358.75	0.037073
359.00	0.038637
359.25	0.038387
359.50	0.036106
359.75	0.038911
360.00	0.038016
360.25	0.038153
360.50	0.038145
360.75	0.036130
361.00	0.037275
361.25	0.033535
361.50	0.034059
361.75	0.034575
362.00	0.035751
362.25	0.034277
362.50	0.037170
362.75	0.034510
363.00	0.035993
363.25	0.035381
363.50	0.033543
363.75	0.030851
364.00	0.032568
364.25	0.029820
364.50	0.031383
364.75	0.030191
365.00	0.029925
365.25	0.029796
365.50	0.031851
365.75	0.029409
366.00	0.030360
366.25	0.027982
366.50	0.029868
366.75	0.030078
367.00	0.027982
367.25	0.026790
367.50	0.030610
367.75	0.026983
368.00	0.029417
368.25	0.029417
368.50	0.027185
368.75	0.028023
369.00	0.028974
369.25	0.024710
369.50	0.028756
369.75	0.027555
370.00	0.025734
370.25	0.029884
370.50	0.026338
370.75	0.025097
371.00	0.027684
371.25	0.022744
371.50	0.028023
371.75	0.024001
372.00	0.024074
372.25	0.024936
372.50	0.024340
372.75	0.025629
373.00	0.025371
373.25	0.027394
373.50	0.025194
373.75	0.024727
374.00	0.025686
374.25	0.024308
374.50	0.022454
374.75	0.024614
375.00	0.024219
375.25	0.024299
375.50	0.025081
375.75	0.025420
376.00	0.025154
376.25	0.025702
376.50	0.024767
376.75	0.024324
377.00	0.023727
377.25	0.023784
377.50	0.023695
377.75	0.024767
378.00	0.026935
378.25	0.022156
378.50	0.024114
378.75	0.024533
379.00	0.023647
379.25	0.021777
379.50	0.023099
379.75	0.024598
380.00	0.024042
380.25	0.020399
380.50	0.022591
380.75	0.025387
381.00	0.023357
381.25	0.021326
381.50	0.024251
381.75	0.021197
382.00	0.021809
382.25	0.022212
382.50	0.020794
382.75	0.021205
383.00	0.020060
383.25	0.022954
383.50	0.021326
383.75	0.019859
384.00	0.022744
384.25	0.022518
384.50	0.020286
384.75	0.023840
385.00	0.021229
385.25	0.020963
385.50	0.021987
385.75	0.020036
386.00	0.023002
386.25	0.021285
386.50	0.024622
386.75	0.022696
387.00	0.021793
387.25	0.022518
387.50	0.021310
387.75	0.026089
388.00	0.023574
388.25	0.023220
388.50	0.024283
388.75	0.022841
389.00	0.024582
389.25	0.023461
389.50	0.025283
389.75	0.023502
390.00	0.026782
390.25	0.022333
390.50	0.022430
390.75	0.024791
391.00	0.024888
391.25	0.026532
391.50	0.024485
391.75	0.023260
392.00	0.025678
392.25	0.027056
392.50	0.023518
392.75	0.027249
393.00	0.024775
393.25	0.026177
393.50	0.027386
393.75	0.024791
394.00	0.026379
394.25	0.026548
394.50	0.027467
394.75	0.027773
395.00	0.027604
395.25	0.027628
395.50	0.028724
395.75	0.028466
396.00	0.029151
396.25	0.027031
396.50	0.027507
396.75	0.027491
397.00	0.029409
397.25	0.030706
397.50	0.028877
397.75	0.029304
398.00	0.031174
398.25	0.030569
398.50	0.033019
398.75	0.031609
399.00	0.032810
399.25	0.031988
399.50	0.031794
399.75	0.032504
400.00	0.033044
400.25	0.033019
400.50	0.033463
400.75	0.032447
401.00	0.031190
401.25	0.033446
401.50	0.031956
401.75	0.032761
402.00	0.033495
402.25	0.035461
402.50	0.035542
402.75	0.034631
403.00	0.035082
403.25	0.036001
403.50	0.034301
403.75	0.032818
404.00	0.035042
404.25	0.035759
404.50	0.036243
404.75	0.035066
405.00	0.036823
405.25	0.035228
405.50	0.037234
405.75	0.037291
406.00	0.038765
406.25	0.037009
406.50	0.038153
406.75	0.037073
407.00	0.039990
407.25	0.037589
407.50	0.039459
407.75	0.038209
408.00	0.037831
408.25	0.040587
408.50	0.040555
408.75	0.041643
409.00	0.037557
409.25	0.041135
409.50	0.041852
409.75	0.040442
410.00	0.043577
410.25	0.041812
410.50	0.040337
410.75	0.045172
411.00	0.044544
411.25	0.043907
411.50	0.044777
411.75	0.044487
412.00	0.044229
412.25	0.044463
412.50	0.047227
412.75	0.044882
413.00	0.045664
413.25	0.044383
413.50	0.045841
413.75	0.046196
414.00	0.046341
414.25	0.046784
414.50	0.046607
414.75	0.048799
415.00	0.045938
415.25	0.047977
415.50	0.044850
415.75	0.046373
416.00	0.046784
416.25	0.048871
416.50	0.048404
416.75	0.049718
417.00	0.048469
417.25	0.047904
417.50	0.050137
417.75	0.049629
418.00	0.049847
418.25	0.051160
418.50	0.049194
418.75	0.049855
419.00	0.048581
419.25	0.050894
419.50	0.050709
419.75	0.050282
420.00	0.049428
420.25	0.051418
420.50	0.050644
420.75	0.050129
421.00	0.053328
421.25	0.050620
421.50	0.051652
421.75	0.053070
422.00	0.053054
422.25	0.052853
422.50	0.052506
422.75	0.052264
423.00	0.050975
423.25	0.054303
423.50	0.053570
423.75	0.055528
424.00	0.055947
424.25	0.055004
424.50	0.056084
424.75	0.053836
425.00	0.054384
425.25	0.055278
425.50	0.054835
425.75	0.053731
426.00	0.055343
426.25	0.056826
426.50	0.055673
426.75	0.057744
427.00	0.055206
427.25	0.055947
427.50	0.055061
427.75	0.057954
428.00	0.060090
428.25	0.058002
428.50	0.057511
428.75	0.058881
429.00	0.059380
429.25	0.058526
429.50	0.059485
429.75	0.062000
430.00	0.061564
430.25	0.062403
430.50	0.060751
430.75	0.061436
431.00	0.062677
431.25	0.062387
431.50	0.060090
431.75	0.062137
432.00	0.063112
432.25	0.063507
432.50	0.064587
432.75	0.065119
433.00	0.063321
433.25	0.065949
433.50	0.065296
433.75	0.064917
434.00	0.066585
434.25	0.066335
434.50	0.068237
434.75	0.066432
435.00	0.067045
435.25	0.069470
435.50	0.068560
435.75	0.069672
436.00	0.071163
436.25	0.070163
436.50	0.069688
436.75	0.072186
437.00	0.071783
437.25	0.073000
437.50	0.073226
437.75	0.073041
438.00	0.075104
438.25	0.075071
438.50	0.075112
438.75	0.073492
439.00	0.075402
439.25	0.076949
439.50	0.077296
439.75	0.077070
440.00	0.078223
440.25	0.077691
440.50	0.078577
440.75	0.078682
441.00	0.079222
441.25	0.077803
441.50	0.082212
441.75	0.078996
442.00	0.080060
442.25	0.081325
442.50	0.082526
442.75	0.081527
443.00	0.083074
443.25	0.082558
443.50	0.084138
443.75	0.083743
444.00	0.086596
444.25	0.086564
444.50	0.084049
444.75	0.087547
445.00	0.084638
445.25	0.088369
445.50	0.088417
445.75	0.087289
446.00	0.087539
446.25	0.088917
446.50	0.090714
446.75	0.091399
447.00	0.089771
447.25	0.091254
447.50	0.092358
447.75	0.093672
448.00	0.092294
448.25	0.092672
448.50	0.094413
448.75	0.095324
449.00	0.093333
449.25	0.095558
449.50	0.094792
449.75	0.095243
450.00	0.096388
450.25	0.097298
450.50	0.096928
450.75	0.098749
451.00	0.095074
451.25	0.099893
451.50	0.099539
451.75	0.098942
452.00	0.10113
452.25	0.10105
452.50	0.10142
452.75	0.10166
453.00	0.10307
453.25	0.10085
453.50	0.10432
453.75	0.10383
454.00	0.10368
454.25	0.10483
454.50	0.10557
454.75	0.10365
455.00	0.10382
455.25	0.10715
455.50	0.10686
455.75	0.10667
456.00	0.10821
456.25	0.10801
456.50	0.10707
456.75	0.10919
457.00	0.10966
457.25	0.11041
457.50	0.11061
457.75	0.10970
458.00	0.11084
458.25	0.10960
458.50	0.11355
458.75	0.11222
459.00	0.11301
459.25	0.11415
459.50	0.11424
459.75	0.11656
460.00	0.11479
460.25	0.11742
460.50	0.11581
460.75	0.11618
461.00	0.11723
461.25	0.11800
461.50	0.11890
461.75	0.12007
462.00	0.11990
462.25	0.12100
462.50	0.12222
462.75	0.12206
463.00	0.12228
463.25	0.12340
463.50	0.12348
463.75	0.12217
464.00	0.12344
464.25	0.12480
464.50	0.12345
464.75	0.12641
465.00	0.12548
465.25	0.12612
465.50	0.12639
465.75	0.12654
466.00	0.12771
466.25	0.12926
466.50	0.12925
466.75	0.12926
467.00	0.13163
467.25	0.13094
467.50	0.13078
467.75	0.12976
468.00	0.13055
468.25	0.13241
468.50	0.13200
468.75	0.13282
469.00	0.13326
469.25	0.13555
469.50	0.13355
469.75	0.13597
470.00	0.13441
470.25	0.13446
470.50	0.13670
470.75	0.13630
471.00	0.13767
471.25	0.13980
471.50	0.13884
471.75	0.13929
472.00	0.13905
472.25	0.13848
472.50	0.14113
472.75	0.14068
473.00	0.14169
473.25	0.14408
473.50	0.14112
473.75	0.14527
474.00	0.14403
474.25	0.14118
474.50	0.14397
474.75	0.14241
475.00	0.14440
475.25	0.14408
475.50	0.14825
475.75	0.14619
476.00	0.14727
476.25	0.14803
476.50	0.14785
476.75	0.14730
477.00	0.14765
477.25	0.14934
477.50	0.15013
477.75	0.15119
478.00	0.15062
478.25	0.15067
478.50	0.14974
478.75	0.15282
479.00	0.15105
479.25	0.15180
479.50	0.15374
479.75	0.15194
480.00	0.15508
480.25	0.15273
480.50	0.15376
480.75	0.15543
481.00	0.15328
481.25	0.15619
481.50	0.15544
481.75	0.15660
482.00	0.15466
482.25	0.15592
482.50	0.15693
482.75	0.15757
483.00	0.15674
483.25	0.15747
483.50	0.15798
483.75	0.15872
484.00	0.15991
484.25	0.16021
484.50	0.16005
484.75	0.16051
485.00	0.16064
485.25	0.16143
485.50	0.16133
485.75	0.16112
486.00	0.16379
486.25	0.16168
486.50	0.16146
486.75	0.16201
487.00	0.16159
487.25	0.16181
487.50	0.16255
487.75	0.16490
488.00	0.16484
488.25	0.16442
488.50	0.16541
488.75	0.16594
489.00	0.16607
489.25	0.16562
489.50	0.16752
489.75	0.16487
490.00	0.16784
490.25	0.16730
490.50	0.16763
490.75	0.16694
491.00	0.16769
491.25	0.16778
491.50	0.16894
491.75	0.16852
492.00	0.16777
492.25	0.17037
492.50	0.16726
492.75	0.17063
493.00	0.16986
493.25	0.16946
493.50	0.17056
493.75	0.17068
494.00	0.17216
494.25	0.17089
494.50	0.17266
494.75	0.17413
495.00	0.17232
495.25	0.17333
495.50	0.17479
495.75	0.17497
496.00	0.17458
496.25	0.17475
496.50	0.17682
496.75	0.17497
497.00	0.17390
497.25	0.17538
497.50	0.17487
497.75	0.17416
498.00	0.17532
498.25	0.17705
498.50	0.17629
498.75	0.17603
499.00	0.17745
499.25	0.17720
499.50	0.18017
499.75	0.17893
500.00	0.17919
500.25	0.17811
500.50	0.17815
500.75	0.18012
501.00	0.18035
501.25	0.18098
501.50	0.18069
501.75	0.18038
502.00	0.17926
502.25	0.18346
502.50	0.18300
502.75	0.18324
503.00	0.18269
503.25	0.18325
503.50	0.18375
503.75	0.18293
504.00	0.18364
504.25	0.18538
504.50	0.18550
504.75	0.18392
505.00	0.18644
505.25	0.18390
505.50	0.18682
505.75	0.18739
506.00	0.18675
506.25	0.18697
506.50	0.18650
506.75	0.18882
507.00	0.18673
507.25	0.18696
507.50	0.18827
507.75	0.18698
508.00	0.18995
508.25	0.19061
508.50	0.19038
508.75	0.19174
509.00	0.19062
509.25	0.19036
509.50	0.18942
509.75	0.19135
510.00	0.19401
510.25	0.19236
510.50	0.19339
510.75	0.19242
511.00	0.19292
511.25	0.19394
511.50	0.19517
511.75	0.19419
512.00	0.19347
512.25	0.19743
512.50	0.19642
512.75	0.19906
513.00	0.19614
513.25	0.19726
513.50	0.19641
513.75	0.19689
514.00	0.19742
514.25	0.19969
514.50	0.20136
514.75	0.20157
515.00	0.19932
515.25	0.20094
515.50	0.20261
515.75	0.20228
516.00	0.20362
516.25	0.20531
516.50	0.20324
516.75	0.20587
517.00	0.20639
517.25	0.20625
517.50	0.20537
517.75	0.20817
518.00	0.20804
518.25	0.20817
518.50	0.21004
518.75	0.20843
519.00	0.21200
519.25	0.20851
519.50	0.21049
519.75	0.21259
520.00	0.21279
520.25	0.21270
520.50	0.21248
520.75	0.21324
521.00	0.21257
521.25	0.21609
521.50	0.21506
521.75	0.21602
522.00	0.21702
522.25	0.22016
522.50	0.21942
522.75	0.21802
523.00	0.21982
