Wavelength (nm)	I20 ems
510.00	0.0011882
510.50	0.0012394
511.00	0.0012905
511.50	0.0013310
512.00	0.0014053
512.50	0.0014972
513.00	0.0015706
513.50	0.0016177
514.00	0.0017051
514.50	0.0017981
515.00	0.0018784
515.50	0.0020014
516.00	0.0021433
516.50	0.0022871
517.00	0.0022896
517.50	0.0024525
518.00	0.0026425
518.50	0.0027946
519.00	0.0029331
519.50	0.0031445
520.00	0.0033018
520.50	0.0035859
521.00	0.0037206
521.50	0.0040237
522.00	0.0042427
522.50	0.0045527
523.00	0.0048696
523.50	0.0051460
524.00	0.0054495
524.50	0.0058662
525.00	0.0061779
525.50	0.0066097
526.00	0.0070588
526.50	0.0075081
527.00	0.0079498
527.50	0.0085223
528.00	0.0090826
528.50	0.0096951
529.00	0.010210
529.50	0.010826
530.00	0.011501
530.50	0.012351
531.00	0.012946
531.50	0.013870
532.00	0.014696
532.50	0.015695
533.00	0.016427
533.50	0.017444
534.00	0.018577
534.50	0.019819
535.00	0.020805
535.50	0.022166
536.00	0.023497
536.50	0.024989
537.00	0.025978
537.50	0.027872
538.00	0.029274
538.50	0.031024
539.00	0.032485
539.50	0.034483
540.00	0.036136
540.50	0.038162
541.00	0.039713
541.50	0.042084
542.00	0.043872
542.50	0.046328
543.00	0.048078
543.50	0.050536
544.00	0.052999
544.50	0.055666
545.00	0.057942
545.50	0.061000
546.00	0.064114
546.50	0.067381
547.00	0.069948
547.50	0.073654
548.00	0.077019
548.50	0.080734
549.00	0.083998
549.50	0.088194
550.00	0.092130
550.50	0.096976
551.00	0.10060
551.50	0.10548
552.00	0.11051
552.50	0.11556
553.00	0.11991
553.50	0.12559
554.00	0.13095
554.50	0.13707
555.00	0.14191
555.50	0.14799
556.00	0.15361
556.50	0.16084
557.00	0.16536
557.50	0.17213
558.00	0.17822
558.50	0.18546
559.00	0.19093
559.50	0.19835
560.00	0.20465
560.50	0.21277
561.00	0.21805
561.50	0.22644
562.00	0.23246
562.50	0.24134
563.00	0.24774
563.50	0.25618
564.00	0.26377
564.50	0.27289
565.00	0.27955
565.50	0.28863
566.00	0.29676
566.50	0.30583
567.00	0.31301
567.50	0.32224
568.00	0.33138
568.50	0.34069
569.00	0.34851
569.50	0.35791
570.00	0.36754
570.50	0.37714
571.00	0.38561
571.50	0.39559
572.00	0.40475
572.50	0.41547
573.00	0.42350
573.50	0.43438
574.00	0.44403
574.50	0.45482
575.00	0.46465
575.50	0.47441
576.00	0.48614
576.50	0.49676
577.00	0.50633
577.50	0.51758
578.00	0.52827
578.50	0.53927
579.00	0.54832
579.50	0.55917
580.00	0.56933
580.50	0.58094
581.00	0.58908
581.50	0.59933
582.00	0.60914
582.50	0.62051
583.00	0.62775
583.50	0.63839
584.00	0.64754
584.50	0.65801
585.00	0.66571
585.50	0.67606
586.00	0.68472
586.50	0.69455
587.00	0.70310
587.50	0.71356
588.00	0.72072
588.50	0.73023
589.00	0.73810
589.50	0.74661
590.00	0.75449
590.50	0.76309
591.00	0.76996
591.50	0.77890
592.00	0.78694
592.50	0.79500
593.00	0.80232
593.50	0.81058
594.00	0.81707
594.50	0.82460
595.00	0.83093
595.50	0.83912
596.00	0.84502
596.50	0.85261
597.00	0.85846
597.50	0.86523
598.00	0.87039
598.50	0.87729
599.00	0.88321
599.50	0.88756
600.00	0.89354
600.50	0.90048
601.00	0.90629
601.50	0.91038
602.00	0.91588
602.50	0.92104
603.00	0.92570
603.50	0.93056
604.00	0.93471
604.50	0.93803
605.00	0.94195
605.50	0.94599
606.00	0.94971
606.50	0.95353
607.00	0.95698
607.50	0.96025
608.00	0.96252
608.50	0.96497
609.00	0.96903
609.50	0.97000
610.00	0.97289
610.50	0.97517
611.00	0.97776
611.50	0.97959
612.00	0.98199
612.50	0.98348
613.00	0.98542
613.50	0.98629
614.00	0.98812
614.50	0.98800
615.00	0.98995
615.50	0.99043
616.00	0.99129
616.50	0.99221
617.00	0.99431
617.50	0.99406
618.00	0.99414
618.50	0.99547
619.00	0.99698
619.50	0.99576
620.00	0.99486
620.50	0.99725
621.00	0.99805
621.50	0.99823
622.00	0.99941
622.50	0.99830
623.00	0.99970
623.50	1.00000
624.00	0.99888
624.50	0.99672
625.00	0.99644
625.50	0.99389
626.00	0.99246
626.50	0.98982
627.00	0.98839
627.50	0.98667
628.00	0.98459
628.50	0.98253
629.00	0.98225
629.50	0.97988
630.00	0.97953
630.50	0.97845
631.00	0.97824
631.50	0.97662
632.00	0.97756
632.50	0.97655
633.00	0.97729
633.50	0.97598
634.00	0.97608
634.50	0.97534
635.00	0.97681
635.50	0.97517
636.00	0.97504
636.50	0.97347
637.00	0.97363
637.50	0.97050
638.00	0.97091
638.50	0.97133
639.00	0.97190
639.50	0.97065
640.00	0.97035
640.50	0.96962
641.00	0.96990
641.50	0.97064
642.00	0.97059
642.50	0.97080
643.00	0.97096
643.50	0.97188
644.00	0.97277
644.50	0.97310
645.00	0.97397
645.50	0.97346
646.00	0.97596
646.50	0.97614
647.00	0.97696
647.50	0.97746
648.00	0.97882
648.50	0.97763
649.00	0.97843
649.50	0.97910
650.00	0.97880
650.50	0.97837
651.00	0.97907
651.50	0.97974
652.00	0.98050
652.50	0.97855
653.00	0.98029
653.50	0.97907
654.00	0.97941
654.50	0.97773
655.00	0.97722
655.50	0.97449
656.00	0.97252
656.50	0.97026
657.00	0.97008
657.50	0.96600
658.00	0.96299
658.50	0.95903
659.00	0.95779
659.50	0.95092
660.00	0.94942
660.50	0.94241
661.00	0.93881
661.50	0.93265
662.00	0.92905
662.50	0.92320
663.00	0.91786
663.50	0.91124
664.00	0.90621
664.50	0.89987
665.00	0.89390
665.50	0.88774
666.00	0.88293
666.50	0.87497
667.00	0.87088
667.50	0.86500
668.00	0.85933
668.50	0.85127
669.00	0.84636
669.50	0.83937
670.00	0.83223
670.50	0.82530
671.00	0.82012
671.50	0.81103
672.00	0.80540
672.50	0.79620
673.00	0.79093
673.50	0.78141
674.00	0.77415
674.50	0.76711
675.00	0.76063
675.50	0.75418
676.00	0.74688
676.50	0.73709
677.00	0.73378
677.50	0.72570
678.00	0.71834
678.50	0.71107
679.00	0.70574
679.50	0.69736
680.00	0.69032
680.50	0.68314
681.00	0.67960
681.50	0.67095
682.00	0.66492
682.50	0.65760
683.00	0.65157
683.50	0.64449
684.00	0.63836
684.50	0.62854
685.00	0.62497
685.50	0.61681
686.00	0.61180
686.50	0.60454
687.00	0.60045
687.50	0.59353
688.00	0.58770
688.50	0.58003
689.00	0.57603
689.50	0.56787
690.00	0.56300
690.50	0.55612
691.00	0.55253
691.50	0.54485
692.00	0.53900
692.50	0.53321
693.00	0.52936
693.50	0.52179
694.00	0.51694
694.50	0.51088
695.00	0.50567
695.50	0.49937
696.00	0.49395
696.50	0.48732
697.00	0.48250
697.50	0.47658
698.00	0.47145
698.50	0.46431
699.00	0.46041
699.50	0.45487
700.00	0.44999
700.50	0.44348
701.00	0.44052
701.50	0.43486
702.00	0.43034
702.50	0.42513
703.00	0.42264
703.50	0.41694
704.00	0.41391
704.50	0.40860
705.00	0.40539
705.50	0.40009
706.00	0.39673
706.50	0.39101
707.00	0.38895
707.50	0.38357
708.00	0.37957
708.50	0.37428
709.00	0.37298
709.50	0.36868
710.00	0.36514
710.50	0.36081
711.00	0.35672
711.50	0.35284
712.00	0.35017
712.50	0.34680
713.00	0.34384
713.50	0.34115
714.00	0.33707
714.50	0.33389
715.00	0.33172
715.50	0.32817
716.00	0.32475
716.50	0.32062
717.00	0.31912
717.50	0.31573
718.00	0.31270
718.50	0.30978
719.00	0.30687
719.50	0.30408
720.00	0.29980
720.50	0.29662
721.00	0.29585
721.50	0.29169
722.00	0.28841
722.50	0.28517
723.00	0.28300
723.50	0.27977
724.00	0.27718
724.50	0.27447
725.00	0.27298
725.50	0.27065
726.00	0.26754
726.50	0.26394
727.00	0.26278
727.50	0.26020
728.00	0.25770
728.50	0.25412
729.00	0.25289
729.50	0.24905
730.00	0.24763
730.50	0.24413
731.00	0.24334
731.50	0.23967
732.00	0.23720
732.50	0.23468
733.00	0.23260
733.50	0.23009
734.00	0.22766
734.50	0.22595
735.00	0.22264
735.50	0.22127
736.00	0.21766
736.50	0.21529
737.00	0.21428
737.50	0.21146
738.00	0.20916
738.50	0.20638
739.00	0.20547
739.50	0.20229
740.00	0.20048
740.50	0.19836
741.00	0.19631
741.50	0.19485
742.00	0.19132
742.50	0.18994
743.00	0.18824
743.50	0.18554
744.00	0.18305
744.50	0.18077
745.00	0.17906
745.50	0.17749
746.00	0.17559
746.50	0.17386
747.00	0.17130
747.50	0.16987
748.00	0.16724
748.50	0.16504
749.00	0.16373
749.50	0.16089
750.00	0.15924
750.50	0.15785
751.00	0.15546
751.50	0.15403
752.00	0.15204
752.50	0.15030
753.00	0.14929
753.50	0.14589
754.00	0.14539
754.50	0.14247
755.00	0.14108
755.50	0.13908
756.00	0.13778
756.50	0.13561
757.00	0.13451
757.50	0.13231
758.00	0.13050
758.50	0.13009
759.00	0.12765
759.50	0.12595
760.00	0.12467
760.50	0.12296
761.00	0.12208
761.50	0.12025
762.00	0.11835
762.50	0.11801
763.00	0.11637
763.50	0.11485
764.00	0.11406
764.50	0.11227
765.00	0.11112
765.50	0.11012
766.00	0.10843
766.50	0.10742
767.00	0.10570
767.50	0.10460
768.00	0.10361
768.50	0.10248
769.00	0.10197
769.50	0.099881
770.00	0.098935
770.50	0.097476
771.00	0.096700
771.50	0.095382
772.00	0.093743
772.50	0.092905
773.00	0.091669
773.50	0.091962
774.00	0.090422
774.50	0.089556
775.00	0.087655
775.50	0.087225
776.00	0.086096
776.50	0.085505
777.00	0.084239
777.50	0.082928
778.00	0.082274
778.50	0.081058
779.00	0.081051
779.50	0.079418
780.00	0.078725
780.50	0.077735
781.00	0.076692
781.50	0.076092
782.00	0.074553
782.50	0.073783
783.00	0.072418
783.50	0.072580
784.00	0.071273
784.50	0.070572
785.00	0.069305
785.50	0.069113
786.00	0.068852
786.50	0.068141
787.00	0.066733
787.50	0.066001
788.00	0.065782
788.50	0.064721
789.00	0.064239
789.50	0.063620
790.00	0.062973
790.50	0.061856
791.00	0.061148
791.50	0.061032
792.00	0.059583
792.50	0.058951
793.00	0.059101
793.50	0.058011
794.00	0.057055
794.50	0.056326
795.00	0.055941
795.50	0.055584
796.00	0.055126
796.50	0.054240
797.00	0.053865
797.50	0.053443
798.00	0.052851
798.50	0.052498
799.00	0.051655
799.50	0.051979
800.00	0.050461
