Wavelength (nm)	I21 abs N
220.00	0.43714
220.25	0.43982
220.50	0.43865
220.75	0.43928
221.00	0.43349
221.25	0.43741
221.50	0.43513
221.75	0.43151
222.00	0.43411
222.25	0.43020
222.50	0.43721
222.75	0.43486
223.00	0.43012
223.25	0.42419
223.50	0.42695
223.75	0.42638
224.00	0.42212
224.25	0.42600
224.50	0.42444
224.75	0.41946
225.00	0.42175
225.25	0.42441
225.50	0.41855
225.75	0.41422
226.00	0.41532
226.25	0.41519
226.50	0.41279
226.75	0.41921
227.00	0.41081
227.25	0.41150
227.50	0.41088
227.75	0.40966
228.00	0.40460
228.25	0.41347
228.50	0.40435
228.75	0.40276
229.00	0.40445
229.25	0.40123
229.50	0.40023
229.75	0.39109
230.00	0.39232
230.25	0.39090
230.50	0.38677
230.75	0.38288
231.00	0.38038
231.25	0.38458
231.50	0.37891
231.75	0.37506
232.00	0.37423
232.25	0.36912
232.50	0.36861
232.75	0.36188
233.00	0.36227
233.25	0.35923
233.50	0.35705
233.75	0.34942
234.00	0.34971
234.25	0.35012
234.50	0.34426
234.75	0.34252
235.00	0.33740
235.25	0.34147
235.50	0.33658
235.75	0.33176
236.00	0.33099
236.25	0.32948
236.50	0.32586
236.75	0.33116
237.00	0.32116
237.25	0.32250
237.50	0.32018
237.75	0.32147
238.00	0.31682
238.25	0.31431
238.50	0.31087
238.75	0.31428
239.00	0.31596
239.25	0.30630
239.50	0.30902
239.75	0.31062
240.00	0.30931
240.25	0.30873
240.50	0.30373
240.75	0.30468
241.00	0.30152
241.25	0.30346
241.50	0.30553
241.75	0.30354
242.00	0.29975
242.25	0.30328
242.50	0.29957
242.75	0.30506
243.00	0.30336
243.25	0.30368
243.50	0.30334
243.75	0.30839
244.00	0.30352
244.25	0.30663
244.50	0.30260
244.75	0.30230
245.00	0.30399
245.25	0.30016
245.50	0.30570
245.75	0.30976
246.00	0.30758
246.25	0.30763
246.50	0.30521
246.75	0.30572
247.00	0.31275
247.25	0.31119
247.50	0.31636
247.75	0.31183
248.00	0.30925
248.25	0.31448
248.50	0.31694
248.75	0.31834
249.00	0.32122
249.25	0.31791
249.50	0.32243
249.75	0.32022
250.00	0.32385
250.25	0.32399
250.50	0.32765
250.75	0.32555
251.00	0.32822
251.25	0.33033
251.50	0.33180
251.75	0.33262
252.00	0.33124
252.25	0.33332
252.50	0.33522
252.75	0.33781
253.00	0.34189
253.25	0.34531
253.50	0.34826
253.75	0.34759
254.00	0.35094
254.25	0.34924
254.50	0.35310
254.75	0.36104
255.00	0.36066
255.25	0.36597
255.50	0.37032
255.75	0.36650
256.00	0.36929
256.25	0.37635
256.50	0.38078
256.75	0.38156
257.00	0.38735
257.25	0.38448
257.50	0.38750
257.75	0.38798
258.00	0.39708
258.25	0.39918
258.50	0.40442
258.75	0.40704
259.00	0.41153
259.25	0.41422
259.50	0.41455
259.75	0.41709
260.00	0.42470
260.25	0.42385
260.50	0.42342
260.75	0.42881
261.00	0.43015
261.25	0.44034
261.50	0.44398
261.75	0.44715
262.00	0.45343
262.25	0.45032
262.50	0.45318
262.75	0.46202
263.00	0.46595
263.25	0.46560
263.50	0.47124
263.75	0.47420
264.00	0.48273
264.25	0.48347
264.50	0.49109
264.75	0.49204
265.00	0.50112
265.25	0.49603
265.50	0.50466
265.75	0.50806
266.00	0.51165
266.25	0.51240
266.50	0.51257
266.75	0.51903
267.00	0.51906
267.25	0.52103
267.50	0.52130
267.75	0.52059
268.00	0.52819
268.25	0.52229
268.50	0.52473
268.75	0.52829
269.00	0.52534
269.25	0.52287
269.50	0.52572
269.75	0.51703
270.00	0.51345
270.25	0.51555
270.50	0.50670
270.75	0.50304
271.00	0.49555
271.25	0.49330
271.50	0.48897
271.75	0.47480
272.00	0.46998
272.25	0.46457
272.50	0.46340
272.75	0.45092
273.00	0.44502
273.25	0.43786
273.50	0.43680
273.75	0.42868
274.00	0.41955
274.25	0.40836
274.50	0.40037
274.75	0.38893
275.00	0.38439
275.25	0.37617
275.50	0.37231
275.75	0.35644
276.00	0.35819
276.25	0.34902
276.50	0.34615
276.75	0.33564
277.00	0.32343
277.25	0.32112
277.50	0.31355
277.75	0.30656
278.00	0.30197
278.25	0.29645
278.50	0.28683
278.75	0.28784
279.00	0.27164
279.25	0.27302
279.50	0.26107
279.75	0.25991
280.00	0.25409
280.25	0.25408
280.50	0.24682
280.75	0.24236
281.00	0.23896
281.25	0.23347
281.50	0.23271
281.75	0.22959
282.00	0.22652
282.25	0.21425
282.50	0.21676
282.75	0.20926
283.00	0.21090
283.25	0.20699
283.50	0.20457
283.75	0.20065
284.00	0.19935
284.25	0.19597
284.50	0.19523
284.75	0.19216
285.00	0.19017
285.25	0.19207
285.50	0.19043
285.75	0.18080
286.00	0.17959
286.25	0.18081
286.50	0.17678
286.75	0.17279
287.00	0.17104
287.25	0.17191
287.50	0.17178
287.75	0.16535
288.00	0.16417
288.25	0.15787
288.50	0.16140
288.75	0.16542
289.00	0.15994
289.25	0.15934
289.50	0.15608
289.75	0.16170
290.00	0.15792
290.25	0.15457
290.50	0.15280
290.75	0.14674
291.00	0.15320
291.25	0.14953
291.50	0.15325
291.75	0.15025
292.00	0.14627
292.25	0.14900
292.50	0.14780
292.75	0.14444
293.00	0.14864
293.25	0.15437
293.50	0.15085
293.75	0.14387
294.00	0.14473
294.25	0.14317
294.50	0.14935
294.75	0.14841
295.00	0.14809
295.25	0.15056
295.50	0.15220
295.75	0.14756
296.00	0.14756
296.25	0.14853
296.50	0.15070
296.75	0.14620
297.00	0.14921
297.25	0.15190
297.50	0.14440
297.75	0.15090
298.00	0.15206
298.25	0.14944
298.50	0.15805
298.75	0.15364
299.00	0.15615
299.25	0.15326
299.50	0.15373
299.75	0.16176
300.00	0.15499
300.25	0.15813
300.50	0.15731
300.75	0.15675
301.00	0.15780
301.25	0.16278
301.50	0.16039
301.75	0.16388
302.00	0.16472
302.25	0.16354
302.50	0.16311
302.75	0.16681
303.00	0.16471
303.25	0.16529
303.50	0.16354
303.75	0.16949
304.00	0.16830
304.25	0.16624
304.50	0.17013
304.75	0.16591
305.00	0.16891
305.25	0.16899
305.50	0.17042
305.75	0.16621
306.00	0.17049
306.25	0.17206
306.50	0.16978
306.75	0.17547
307.00	0.17497
307.25	0.17289
307.50	0.17456
307.75	0.18005
308.00	0.17429
308.25	0.17805
308.50	0.17792
308.75	0.17900
309.00	0.18092
309.25	0.17821
309.50	0.18553
309.75	0.18060
310.00	0.18714
310.25	0.18633
310.50	0.19112
310.75	0.18915
311.00	0.19243
311.25	0.18578
311.50	0.18995
311.75	0.19186
312.00	0.19825
312.25	0.19693
312.50	0.19525
312.75	0.19813
313.00	0.19746
313.25	0.19907
313.50	0.19909
313.75	0.19582
314.00	0.20330
314.25	0.19585
314.50	0.20471
314.75	0.20436
315.00	0.19793
315.25	0.20728
315.50	0.20798
315.75	0.20547
316.00	0.20575
316.25	0.20841
316.50	0.20910
316.75	0.21113
317.00	0.20580
317.25	0.21059
317.50	0.21726
317.75	0.21173
318.00	0.20802
318.25	0.21247
318.50	0.21743
318.75	0.21290
319.00	0.21463
319.25	0.22062
319.50	0.21050
319.75	0.21726
320.00	0.21654
320.25	0.21476
320.50	0.21716
320.75	0.21626
321.00	0.21861
321.25	0.22042
321.50	0.21647
321.75	0.21687
322.00	0.21726
322.25	0.21961
322.50	0.21771
322.75	0.21381
323.00	0.21736
323.25	0.22068
323.50	0.21790
323.75	0.22099
324.00	0.21508
324.25	0.21459
324.50	0.21641
324.75	0.21243
325.00	0.21283
325.25	0.21180
325.50	0.21252
325.75	0.21015
326.00	0.21125
326.25	0.20513
326.50	0.20787
326.75	0.20250
327.00	0.20897
327.25	0.20245
327.50	0.19867
327.75	0.19782
328.00	0.19728
328.25	0.20048
328.50	0.19472
328.75	0.19592
329.00	0.19389
329.25	0.19430
329.50	0.19070
329.75	0.18505
330.00	0.18897
330.25	0.18690
330.50	0.18716
330.75	0.18423
331.00	0.17717
331.25	0.18043
331.50	0.18430
331.75	0.17897
332.00	0.16666
332.25	0.17013
332.50	0.16717
332.75	0.16677
333.00	0.16669
333.25	0.17011
333.50	0.16592
333.75	0.16366
334.00	0.16264
334.25	0.16181
334.50	0.15918
334.75	0.15692
335.00	0.14721
335.25	0.15079
335.50	0.14576
335.75	0.14789
336.00	0.14612
336.25	0.14180
336.50	0.14309
336.75	0.13855
337.00	0.14203
337.25	0.13459
337.50	0.13276
337.75	0.13355
338.00	0.13037
338.25	0.12889
338.50	0.13294
338.75	0.13519
339.00	0.12636
339.25	0.11868
339.50	0.13076
339.75	0.11805
340.00	0.11781
340.25	0.11817
340.50	0.12086
340.75	0.12797
341.00	0.12230
341.25	0.11388
341.50	0.11909
341.75	0.11823
342.00	0.11521
342.25	0.11566
342.50	0.11130
342.75	0.11470
343.00	0.10499
343.25	0.11330
343.50	0.10961
343.75	0.10430
344.00	0.10864
344.25	0.10008
344.50	0.10891
344.75	0.098013
345.00	0.10316
345.25	0.10107
345.50	0.10013
345.75	0.10563
346.00	0.099003
346.25	0.099784
346.50	0.089968
346.75	0.10028
347.00	0.097107
347.25	0.10227
347.50	0.095118
347.75	0.096625
348.00	0.095488
348.25	0.098744
348.50	0.094266
348.75	0.093086
349.00	0.092031
349.25	0.093295
349.50	0.092579
349.75	0.095336
350.00	0.091910
350.25	0.092936
350.50	0.091306
350.75	0.091673
351.00	0.090271
351.25	0.093208
351.50	0.090315
351.75	0.090454
352.00	0.091280
352.25	0.089827
352.50	0.088267
352.75	0.089518
353.00	0.085447
353.25	0.089184
353.50	0.088097
353.75	0.085840
354.00	0.085244
354.25	0.087544
354.50	0.086504
354.75	0.083275
355.00	0.085482
355.25	0.084645
355.50	0.084853
355.75	0.084003
356.00	0.085213
356.25	0.083494
356.50	0.078833
356.75	0.081828
357.00	0.082441
357.25	0.079807
357.50	0.083035
357.75	0.081143
358.00	0.078693
358.25	0.080067
358.50	0.077679
358.75	0.079719
359.00	0.079642
359.25	0.079384
359.50	0.078837
359.75	0.074958
360.00	0.075797
360.25	0.077233
360.50	0.077188
360.75	0.077400
361.00	0.076141
361.25	0.078361
361.50	0.075244
361.75	0.077270
362.00	0.076302
362.25	0.077036
362.50	0.073266
362.75	0.070797
363.00	0.071496
363.25	0.068725
363.50	0.069364
363.75	0.069649
364.00	0.074015
364.25	0.070593
364.50	0.066567
364.75	0.068612
365.00	0.068010
365.25	0.069155
365.50	0.069735
365.75	0.067091
366.00	0.066493
366.25	0.067239
366.50	0.064805
366.75	0.066103
367.00	0.064896
367.25	0.064267
367.50	0.066404
367.75	0.063099
368.00	0.063463
368.25	0.063933
368.50	0.062799
368.75	0.061155
369.00	0.061010
369.25	0.058058
369.50	0.060542
369.75	0.059707
370.00	0.061267
370.25	0.060255
370.50	0.059675
370.75	0.058745
371.00	0.062410
371.25	0.057114
371.50	0.059874
371.75	0.059739
372.00	0.058303
372.25	0.056852
372.50	0.057487
372.75	0.058274
373.00	0.052774
373.25	0.058437
373.50	0.056454
373.75	0.056172
374.00	0.055715
374.25	0.053704
374.50	0.054747
374.75	0.052402
375.00	0.053804
375.25	0.051542
375.50	0.051795
375.75	0.053978
376.00	0.050541
376.25	0.051507
376.50	0.050303
376.75	0.049518
377.00	0.051378
377.25	0.052173
377.50	0.051553
377.75	0.052379
378.00	0.050655
378.25	0.050734
378.50	0.050937
378.75	0.048820
379.00	0.049471
379.25	0.050283
379.50	0.049618
379.75	0.052733
380.00	0.050612
380.25	0.047774
380.50	0.050023
380.75	0.050238
381.00	0.047946
381.25	0.049938
381.50	0.049544
381.75	0.050327
382.00	0.046912
382.25	0.049163
382.50	0.046544
382.75	0.050318
383.00	0.046230
383.25	0.046158
383.50	0.048175
383.75	0.047569
384.00	0.047716
384.25	0.046221
384.50	0.042108
384.75	0.046643
385.00	0.047499
385.25	0.045775
385.50	0.045504
385.75	0.048128
386.00	0.046945
386.25	0.044858
386.50	0.047454
386.75	0.045604
387.00	0.046723
387.25	0.045181
387.50	0.044600
387.75	0.045547
388.00	0.044169
388.25	0.044696
388.50	0.046140
388.75	0.043879
389.00	0.047159
389.25	0.043972
389.50	0.046455
389.75	0.042942
390.00	0.043651
390.25	0.041831
390.50	0.044763
390.75	0.044766
391.00	0.043054
391.25	0.044239
391.50	0.043934
391.75	0.042189
392.00	0.043617
392.25	0.042650
392.50	0.042911
392.75	0.045515
393.00	0.042075
393.25	0.044022
393.50	0.042700
393.75	0.043650
394.00	0.043335
394.25	0.042377
394.50	0.044777
394.75	0.044058
395.00	0.042286
395.25	0.043455
395.50	0.041644
395.75	0.043072
396.00	0.042216
396.25	0.043056
396.50	0.044946
396.75	0.042469
397.00	0.039741
397.25	0.044145
397.50	0.041160
397.75	0.041585
398.00	0.041420
398.25	0.043256
398.50	0.041318
398.75	0.042559
399.00	0.042464
399.25	0.043012
399.50	0.043555
399.75	0.040683
400.00	0.044297
400.25	0.040675
400.50	0.044123
400.75	0.044199
401.00	0.044019
401.25	0.041934
401.50	0.044398
401.75	0.042876
402.00	0.042074
402.25	0.042176
402.50	0.042023
402.75	0.044193
403.00	0.043451
403.25	0.042997
403.50	0.041192
403.75	0.041877
404.00	0.042683
404.25	0.044049
404.50	0.042952
404.75	0.044152
405.00	0.043849
405.25	0.040943
405.50	0.044201
405.75	0.044287
406.00	0.044687
406.25	0.042756
406.50	0.043359
406.75	0.045220
407.00	0.042889
407.25	0.041685
407.50	0.044356
407.75	0.044227
408.00	0.044093
408.25	0.043118
408.50	0.045461
408.75	0.043164
409.00	0.044193
409.25	0.043462
409.50	0.043906
409.75	0.045440
410.00	0.045300
410.25	0.042820
410.50	0.042856
410.75	0.041801
411.00	0.042432
411.25	0.042760
411.50	0.044069
411.75	0.043421
412.00	0.041462
412.25	0.043285
412.50	0.043922
412.75	0.043635
413.00	0.041711
413.25	0.042326
413.50	0.041125
413.75	0.044018
414.00	0.043928
414.25	0.043208
414.50	0.041032
414.75	0.043299
415.00	0.042476
415.25	0.040948
415.50	0.041392
415.75	0.041428
416.00	0.043853
416.25	0.041177
416.50	0.042020
416.75	0.041106
417.00	0.042094
417.25	0.042210
417.50	0.039269
417.75	0.041617
418.00	0.042420
418.25	0.042836
418.50	0.042506
418.75	0.039895
419.00	0.041752
419.25	0.041161
419.50	0.040577
419.75	0.038620
420.00	0.040674
420.25	0.041970
420.50	0.040860
420.75	0.040180
421.00	0.040812
421.25	0.040952
421.50	0.039724
421.75	0.039994
422.00	0.039998
422.25	0.040104
422.50	0.040769
422.75	0.040721
423.00	0.039363
423.25	0.038564
423.50	0.040968
423.75	0.038527
424.00	0.038270
424.25	0.037599
424.50	0.040265
424.75	0.040382
425.00	0.037926
425.25	0.037478
425.50	0.038118
425.75	0.037858
426.00	0.036727
426.25	0.037928
426.50	0.036401
426.75	0.037351
427.00	0.038070
427.25	0.037940
427.50	0.037905
427.75	0.039119
428.00	0.039187
428.25	0.038934
428.50	0.035540
428.75	0.036589
429.00	0.036676
429.25	0.037590
429.50	0.037094
429.75	0.036541
430.00	0.037523
430.25	0.038003
430.50	0.036478
430.75	0.036412
431.00	0.034847
431.25	0.037485
431.50	0.035409
431.75	0.036842
432.00	0.034821
432.25	0.035219
432.50	0.035858
432.75	0.036975
433.00	0.036049
433.25	0.037026
433.50	0.036136
433.75	0.036089
434.00	0.035017
434.25	0.036588
434.50	0.034663
434.75	0.034741
435.00	0.035559
435.25	0.035959
435.50	0.034293
435.75	0.035197
436.00	0.037055
436.25	0.034791
436.50	0.035561
436.75	0.035775
437.00	0.035075
437.25	0.036572
437.50	0.034645
437.75	0.034280
438.00	0.033247
438.25	0.034642
438.50	0.035964
438.75	0.034865
439.00	0.034004
439.25	0.034101
439.50	0.034056
439.75	0.035460
440.00	0.034334
440.25	0.034947
440.50	0.034111
440.75	0.034616
441.00	0.034323
441.25	0.033826
441.50	0.035217
441.75	0.035133
442.00	0.035127
442.25	0.034145
442.50	0.035336
442.75	0.034252
443.00	0.034392
443.25	0.034784
443.50	0.033333
443.75	0.034187
444.00	0.033899
444.25	0.034601
444.50	0.033940
444.75	0.034818
445.00	0.032493
445.25	0.033702
445.50	0.034393
445.75	0.033130
446.00	0.034583
446.25	0.034217
446.50	0.032889
446.75	0.033453
447.00	0.033650
447.25	0.033552
447.50	0.033802
447.75	0.033265
448.00	0.033736
448.25	0.035429
448.50	0.032093
448.75	0.033338
449.00	0.031859
449.25	0.033860
449.50	0.033453
449.75	0.034247
450.00	0.035220
450.25	0.033637
450.50	0.032848
450.75	0.034190
451.00	0.034766
451.25	0.033233
451.50	0.033270
451.75	0.032271
452.00	0.033782
452.25	0.033804
452.50	0.035071
452.75	0.033775
453.00	0.035212
453.25	0.033101
453.50	0.033448
453.75	0.033337
454.00	0.034042
454.25	0.033652
454.50	0.033520
454.75	0.032968
455.00	0.032867
455.25	0.034013
455.50	0.033970
455.75	0.032874
456.00	0.033362
456.25	0.033315
456.50	0.033486
456.75	0.034302
457.00	0.032507
457.25	0.032553
457.50	0.032347
457.75	0.033129
458.00	0.032901
458.25	0.034248
458.50	0.032654
458.75	0.033296
459.00	0.034731
459.25	0.033736
459.50	0.033349
459.75	0.034276
460.00	0.033386
460.25	0.033304
460.50	0.033871
460.75	0.034249
461.00	0.035080
461.25	0.035289
461.50	0.034506
461.75	0.035775
462.00	0.033718
462.25	0.034532
462.50	0.034175
462.75	0.033895
463.00	0.034091
463.25	0.034269
463.50	0.035149
463.75	0.036103
464.00	0.036405
464.25	0.035574
464.50	0.035965
464.75	0.036264
465.00	0.036408
465.25	0.035477
465.50	0.035417
465.75	0.036620
466.00	0.037449
466.25	0.037527
466.50	0.034865
466.75	0.036219
467.00	0.037159
467.25	0.037289
467.50	0.037291
467.75	0.036870
468.00	0.037124
468.25	0.037956
468.50	0.037874
468.75	0.038502
469.00	0.038444
469.25	0.038126
469.50	0.039080
469.75	0.039506
470.00	0.040028
470.25	0.041013
470.50	0.039001
470.75	0.040628
471.00	0.041338
471.25	0.039053
471.50	0.040737
471.75	0.038742
472.00	0.041290
472.25	0.041456
472.50	0.041170
472.75	0.040734
473.00	0.042059
473.25	0.041707
473.50	0.042248
473.75	0.042644
474.00	0.041166
474.25	0.044935
474.50	0.042316
474.75	0.043722
475.00	0.044278
475.25	0.045036
475.50	0.043465
475.75	0.045605
476.00	0.044780
476.25	0.044800
476.50	0.044358
476.75	0.045980
477.00	0.045805
477.25	0.045281
477.50	0.046933
477.75	0.045509
478.00	0.046873
478.25	0.048105
478.50	0.049126
478.75	0.047125
479.00	0.048213
479.25	0.048889
479.50	0.048539
479.75	0.047887
480.00	0.048499
480.25	0.048235
480.50	0.047966
480.75	0.050865
481.00	0.049798
481.25	0.051719
481.50	0.051082
481.75	0.051428
482.00	0.051763
482.25	0.051064
482.50	0.050353
482.75	0.052857
483.00	0.053235
483.25	0.053547
483.50	0.052477
483.75	0.053043
484.00	0.054160
484.25	0.054394
484.50	0.055178
484.75	0.054217
485.00	0.056238
485.25	0.056245
485.50	0.056098
485.75	0.056237
486.00	0.056257
486.25	0.056208
486.50	0.056705
486.75	0.058879
487.00	0.057762
487.25	0.058189
487.50	0.059089
487.75	0.059865
488.00	0.061166
488.25	0.060040
488.50	0.060009
488.75	0.061661
489.00	0.061019
489.25	0.061442
489.50	0.062769
489.75	0.062877
490.00	0.061899
490.25	0.063178
490.50	0.064032
490.75	0.064068
491.00	0.063731
491.25	0.063759
491.50	0.066158
491.75	0.065216
492.00	0.065059
492.25	0.067760
492.50	0.067057
492.75	0.067739
493.00	0.068066
493.25	0.068671
493.50	0.067755
493.75	0.069503
494.00	0.070372
494.25	0.070846
494.50	0.071708
494.75	0.071830
495.00	0.071677
495.25	0.072461
495.50	0.074242
495.75	0.074067
496.00	0.075079
496.25	0.076145
496.50	0.076040
496.75	0.076257
497.00	0.077098
497.25	0.077696
497.50	0.077442
497.75	0.078094
498.00	0.079204
498.25	0.080092
498.50	0.080177
498.75	0.079672
499.00	0.082292
499.25	0.083137
499.50	0.082896
499.75	0.082832
500.00	0.084821
500.25	0.083877
500.50	0.084857
500.75	0.084692
501.00	0.086764
501.25	0.086481
501.50	0.087104
501.75	0.087821
502.00	0.088320
502.25	0.090939
502.50	0.090182
502.75	0.091029
503.00	0.091776
503.25	0.093635
503.50	0.092716
503.75	0.094710
504.00	0.093987
504.25	0.095225
504.50	0.095552
504.75	0.096481
505.00	0.096413
505.25	0.099187
505.50	0.098079
505.75	0.10078
506.00	0.10077
506.25	0.10155
506.50	0.10244
506.75	0.10421
507.00	0.10304
507.25	0.10444
507.50	0.10560
507.75	0.10572
508.00	0.10642
508.25	0.10671
508.50	0.10922
508.75	0.10933
509.00	0.10936
509.25	0.11088
509.50	0.11202
509.75	0.11244
510.00	0.11334
510.25	0.11633
510.50	0.11501
510.75	0.11607
511.00	0.11664
511.25	0.11850
511.50	0.11857
511.75	0.11918
512.00	0.12282
512.25	0.12341
512.50	0.12386
512.75	0.12144
513.00	0.12383
513.25	0.12374
513.50	0.12588
513.75	0.12586
514.00	0.12927
514.25	0.12803
514.50	0.12986
514.75	0.13045
515.00	0.13046
515.25	0.13240
515.50	0.13385
515.75	0.13210
516.00	0.13448
516.25	0.13407
516.50	0.13501
516.75	0.13787
517.00	0.13659
517.25	0.13907
517.50	0.13973
517.75	0.14274
518.00	0.14109
518.25	0.14498
518.50	0.14381
518.75	0.14356
519.00	0.14740
519.25	0.14759
519.50	0.14823
519.75	0.14945
520.00	0.14954
520.25	0.15141
520.50	0.15134
520.75	0.15361
521.00	0.15385
521.25	0.15458
521.50	0.15519
521.75	0.15759
