Wavelength (nm)	K07 ems
460.00	0.0028450
460.50	0.0029153
461.00	0.0031029
461.50	0.0033599
462.00	0.0034259
462.50	0.0039368
463.00	0.0041389
463.50	0.0047130
464.00	0.0051434
464.50	0.0056826
465.00	0.0062190
465.50	0.0071647
466.00	0.0074206
466.50	0.0085249
467.00	0.0090841
467.50	0.010697
468.00	0.011076
468.50	0.012299
469.00	0.013471
469.50	0.015059
470.00	0.016158
470.50	0.018790
471.00	0.020143
471.50	0.023939
472.00	0.024999
472.50	0.028606
473.00	0.031409
473.50	0.035814
474.00	0.039464
474.50	0.045208
475.00	0.049272
475.50	0.057469
476.00	0.062913
476.50	0.072579
477.00	0.079638
477.50	0.092157
478.00	0.099797
478.50	0.11502
479.00	0.12651
479.50	0.14642
480.00	0.15726
480.50	0.17867
481.00	0.19516
481.50	0.22189
482.00	0.23994
482.50	0.26646
483.00	0.29060
483.50	0.32536
484.00	0.34424
484.50	0.37685
485.00	0.40595
485.50	0.44469
486.00	0.46603
486.50	0.50305
487.00	0.53383
487.50	0.57604
488.00	0.60019
488.50	0.63631
489.00	0.66581
489.50	0.70882
490.00	0.72998
490.50	0.76769
491.00	0.79380
491.50	0.83004
492.00	0.84817
492.50	0.87937
493.00	0.89821
493.50	0.92467
494.00	0.93641
494.50	0.95631
495.00	0.96755
495.50	0.98157
496.00	0.98719
496.50	0.99452
497.00	0.99833
497.50	1.0000
498.00	0.99830
498.50	0.99337
499.00	0.99092
499.50	0.97749
500.00	0.97264
500.50	0.96029
501.00	0.94571
501.50	0.92996
502.00	0.92010
502.50	0.90073
503.00	0.88346
503.50	0.86316
504.00	0.85162
504.50	0.83029
505.00	0.81291
505.50	0.79007
506.00	0.77818
506.50	0.75885
507.00	0.74538
507.50	0.72513
508.00	0.71258
508.50	0.69795
509.00	0.68412
509.50	0.66926
510.00	0.66254
510.50	0.64907
511.00	0.63790
511.50	0.62496
512.00	0.62016
512.50	0.61103
513.00	0.60458
513.50	0.59214
514.00	0.58934
514.50	0.58148
515.00	0.57675
515.50	0.56977
516.00	0.56826
516.50	0.56419
517.00	0.56094
517.50	0.55556
518.00	0.55348
518.50	0.55013
519.00	0.54607
519.50	0.54103
520.00	0.53979
520.50	0.53449
521.00	0.53183
521.50	0.52832
522.00	0.52645
522.50	0.52221
523.00	0.52127
523.50	0.51656
524.00	0.51736
524.50	0.51448
525.00	0.51100
525.50	0.50633
526.00	0.50416
526.50	0.50178
527.00	0.49732
527.50	0.49222
528.00	0.49072
528.50	0.48571
529.00	0.48276
529.50	0.47450
530.00	0.47287
530.50	0.46775
531.00	0.46286
531.50	0.45531
532.00	0.45263
532.50	0.44611
533.00	0.44100
533.50	0.43421
534.00	0.43121
534.50	0.42323
535.00	0.41825
535.50	0.41036
536.00	0.40756
536.50	0.39902
537.00	0.39539
537.50	0.38747
538.00	0.38201
538.50	0.37668
539.00	0.36966
539.50	0.36121
540.00	0.35793
540.50	0.34910
541.00	0.34437
541.50	0.33395
542.00	0.33274
542.50	0.32404
543.00	0.31883
543.50	0.31035
544.00	0.30644
544.50	0.29928
545.00	0.29470
545.50	0.28580
546.00	0.28258
546.50	0.27619
547.00	0.27154
547.50	0.26516
548.00	0.26110
548.50	0.25510
549.00	0.25016
549.50	0.24496
550.00	0.24074
550.50	0.23545
551.00	0.23083
551.50	0.22551
552.00	0.22274
552.50	0.21678
553.00	0.21452
553.50	0.20828
554.00	0.20636
554.50	0.20127
555.00	0.19818
555.50	0.19406
556.00	0.19113
556.50	0.18766
557.00	0.18462
557.50	0.18122
558.00	0.17886
558.50	0.17700
559.00	0.17298
559.50	0.17023
560.00	0.16796
560.50	0.16561
561.00	0.16348
561.50	0.16009
562.00	0.15714
562.50	0.15527
563.00	0.15323
563.50	0.15049
564.00	0.14950
564.50	0.14595
565.00	0.14447
565.50	0.14204
566.00	0.14072
566.50	0.13748
567.00	0.13628
567.50	0.13399
568.00	0.13219
568.50	0.13082
569.00	0.12932
569.50	0.12633
570.00	0.12467
570.50	0.12298
571.00	0.12116
571.50	0.11785
572.00	0.11691
572.50	0.11531
573.00	0.11408
573.50	0.11154
574.00	0.11114
574.50	0.10834
575.00	0.10662
575.50	0.10487
576.00	0.10360
576.50	0.10205
577.00	0.10018
577.50	0.097592
578.00	0.097105
578.50	0.095151
579.00	0.094355
579.50	0.090811
580.00	0.090295
580.50	0.088937
581.00	0.087753
581.50	0.086161
582.00	0.083835
582.50	0.084016
583.00	0.082673
583.50	0.079496
584.00	0.078998
584.50	0.077730
585.00	0.076632
585.50	0.075543
586.00	0.073955
586.50	0.072819
587.00	0.071464
587.50	0.069738
588.00	0.069586
588.50	0.067558
589.00	0.066794
589.50	0.064735
590.00	0.064159
590.50	0.063320
591.00	0.062295
591.50	0.060873
592.00	0.059275
592.50	0.058683
593.00	0.057958
593.50	0.056992
594.00	0.056011
594.50	0.054917
595.00	0.054176
595.50	0.051866
596.00	0.052394
596.50	0.051557
597.00	0.050540
597.50	0.049009
598.00	0.048372
598.50	0.047488
599.00	0.047175
599.50	0.044958
600.00	0.044515
600.50	0.043972
601.00	0.043046
601.50	0.042510
602.00	0.041652
602.50	0.041379
603.00	0.040162
603.50	0.039825
604.00	0.039129
604.50	0.038184
605.00	0.038048
605.50	0.036542
606.00	0.036257
606.50	0.035285
607.00	0.034984
607.50	0.034934
608.00	0.034319
608.50	0.033871
609.00	0.032983
609.50	0.032514
610.00	0.031820
610.50	0.031678
611.00	0.031353
611.50	0.030611
612.00	0.030339
612.50	0.029188
613.00	0.028861
613.50	0.028035
614.00	0.027839
614.50	0.027363
615.00	0.026821
615.50	0.027251
616.00	0.026781
616.50	0.026022
617.00	0.025618
617.50	0.025328
618.00	0.025342
618.50	0.023913
619.00	0.023718
619.50	0.023322
620.00	0.022616
620.50	0.022532
621.00	0.022610
621.50	0.022418
622.00	0.021639
622.50	0.021634
623.00	0.021093
623.50	0.021181
624.00	0.020354
624.50	0.020960
625.00	0.019138
625.50	0.019706
626.00	0.019013
626.50	0.018750
627.00	0.018594
627.50	0.018166
628.00	0.018330
628.50	0.017371
629.00	0.017212
629.50	0.017216
630.00	0.016685
630.50	0.016951
631.00	0.016631
631.50	0.016070
632.00	0.015744
632.50	0.016316
633.00	0.015449
633.50	0.015559
634.00	0.015045
634.50	0.014485
635.00	0.015037
635.50	0.014417
636.00	0.014538
636.50	0.014189
637.00	0.013848
637.50	0.013437
638.00	0.013178
638.50	0.013319
639.00	0.013337
639.50	0.012934
640.00	0.012374
640.50	0.012021
641.00	0.012323
641.50	0.011166
642.00	0.012219
642.50	0.011716
643.00	0.011684
643.50	0.011288
644.00	0.011132
644.50	0.011070
645.00	0.011075
645.50	0.011279
646.00	0.010446
646.50	0.0098987
647.00	0.010008
647.50	0.0098298
648.00	0.0098287
648.50	0.0099573
649.00	0.0098100
649.50	0.0092677
650.00	0.0091195
650.50	0.0091135
651.00	0.0090170
651.50	0.0091314
652.00	0.0093768
652.50	0.0087590
653.00	0.0086055
653.50	0.0084741
654.00	0.0082042
654.50	0.0084207
655.00	0.0082610
655.50	0.0080798
656.00	0.0079294
656.50	0.0079008
657.00	0.0078384
657.50	0.0075381
658.00	0.0077361
658.50	0.0073646
659.00	0.0075798
659.50	0.0072417
660.00	0.0074024
660.50	0.0072675
661.00	0.0069290
661.50	0.0075585
662.00	0.0067661
662.50	0.0062797
663.00	0.0066383
663.50	0.0065025
664.00	0.0066040
664.50	0.0063152
665.00	0.0061528
665.50	0.0064036
666.00	0.0061105
666.50	0.0059044
667.00	0.0056500
667.50	0.0057184
668.00	0.0054732
668.50	0.0056150
669.00	0.0056646
669.50	0.0057004
670.00	0.0052972
670.50	0.0051250
671.00	0.0054950
671.50	0.0059171
672.00	0.0058072
672.50	0.0056518
673.00	0.0055236
673.50	0.0050786
674.00	0.0056969
674.50	0.0051524
675.00	0.0047915
675.50	0.0050162
676.00	0.0049595
676.50	0.0047541
677.00	0.0048996
677.50	0.0045104
678.00	0.0043808
678.50	0.0041556
679.00	0.0049551
679.50	0.0044716
680.00	0.0042529
680.50	0.0047807
681.00	0.0046224
681.50	0.0041863
682.00	0.0042010
682.50	0.0038383
683.00	0.0046643
683.50	0.0040782
684.00	0.0039411
684.50	0.0041436
685.00	0.0037344
685.50	0.0041099
686.00	0.0038797
686.50	0.0037611
687.00	0.0040796
687.50	0.0042914
688.00	0.0033414
688.50	0.0036389
689.00	0.0036082
689.50	0.0033205
690.00	0.0033049
690.50	0.0035317
691.00	0.0039130
691.50	0.0029968
692.00	0.0035205
692.50	0.0035243
693.00	0.0033036
693.50	0.0033244
694.00	0.0037048
694.50	0.0033977
695.00	0.0036359
695.50	0.0028179
696.00	0.0035358
696.50	0.0037222
697.00	0.0031236
697.50	0.0033420
698.00	0.0035432
698.50	0.0035126
699.00	0.0032255
699.50	0.0030564
700.00	0.0034370
