Wavelength (nm)	K19 ems
550.00	0.025498
550.50	0.030268
551.00	0.025103
551.50	0.030141
552.00	0.028480
552.50	0.032024
553.00	0.034999
553.50	0.036919
554.00	0.041971
554.50	0.034782
555.00	0.047590
555.50	0.042683
556.00	0.044554
556.50	0.044360
557.00	0.050666
557.50	0.051354
558.00	0.054147
558.50	0.052865
559.00	0.054312
559.50	0.058394
560.00	0.057234
560.50	0.060845
561.00	0.058918
561.50	0.062812
562.00	0.076539
562.50	0.076432
563.00	0.081582
563.50	0.080587
564.00	0.085009
564.50	0.086608
565.00	0.092380
565.50	0.097961
566.00	0.10843
566.50	0.11332
567.00	0.10940
567.50	0.11498
568.00	0.12687
568.50	0.12200
569.00	0.13144
569.50	0.12682
570.00	0.14391
570.50	0.15020
571.00	0.15421
571.50	0.14772
572.00	0.16837
572.50	0.17331
573.00	0.18134
573.50	0.17998
574.00	0.18766
574.50	0.19177
575.00	0.19266
575.50	0.21335
576.00	0.21280
576.50	0.21665
577.00	0.23209
577.50	0.23417
578.00	0.24245
578.50	0.26685
579.00	0.25861
579.50	0.26123
580.00	0.27601
580.50	0.27035
581.00	0.28913
581.50	0.29841
582.00	0.31505
582.50	0.31927
583.00	0.32157
583.50	0.34568
584.00	0.36514
584.50	0.38641
585.00	0.40981
585.50	0.41059
586.00	0.40753
586.50	0.44014
587.00	0.45754
587.50	0.44869
588.00	0.47151
588.50	0.45576
589.00	0.49662
589.50	0.48128
590.00	0.49646
590.50	0.50940
591.00	0.53310
591.50	0.55985
592.00	0.56305
592.50	0.60233
593.00	0.59000
593.50	0.59817
594.00	0.65529
594.50	0.65278
595.00	0.65237
595.50	0.65377
596.00	0.66906
596.50	0.69079
597.00	0.72970
597.50	0.74275
598.00	0.76700
598.50	0.74239
599.00	0.77883
599.50	0.77038
600.00	0.82241
600.50	0.77287
601.00	0.84220
601.50	0.83369
602.00	0.84966
602.50	0.86311
603.00	0.86591
603.50	0.91132
604.00	0.89991
604.50	0.88692
605.00	0.91340
605.50	0.90824
606.00	0.94028
606.50	0.96314
607.00	0.92198
607.50	0.93477
608.00	0.96611
608.50	0.98045
609.00	0.92346
609.50	0.97287
610.00	0.97659
610.50	1.0000
611.00	0.93817
611.50	0.98371
612.00	0.98160
612.50	0.95061
613.00	0.95927
613.50	0.94903
614.00	0.91879
614.50	0.95727
615.00	0.97289
615.50	0.94950
616.00	0.94624
616.50	0.92330
617.00	0.93089
617.50	0.92012
618.00	0.89315
618.50	0.88254
619.00	0.89897
619.50	0.88461
620.00	0.87066
620.50	0.88510
621.00	0.83015
621.50	0.86171
622.00	0.83417
622.50	0.85820
623.00	0.84541
623.50	0.81447
624.00	0.83172
624.50	0.78978
625.00	0.79184
625.50	0.78676
626.00	0.78520
626.50	0.77089
627.00	0.78181
627.50	0.75082
628.00	0.71045
628.50	0.75996
629.00	0.71685
629.50	0.72242
630.00	0.70921
630.50	0.69773
631.00	0.69460
631.50	0.70339
632.00	0.66403
632.50	0.66106
633.00	0.65355
633.50	0.64692
634.00	0.63241
634.50	0.64220
635.00	0.63379
635.50	0.63393
636.00	0.62690
636.50	0.63185
637.00	0.61803
637.50	0.61597
638.00	0.61959
638.50	0.63390
639.00	0.64803
639.50	0.63785
640.00	0.61573
640.50	0.63453
641.00	0.61524
641.50	0.61657
642.00	0.59488
642.50	0.58939
643.00	0.57656
643.50	0.58309
644.00	0.61547
644.50	0.56164
645.00	0.53640
645.50	0.56973
646.00	0.54674
646.50	0.53656
647.00	0.52768
647.50	0.51227
648.00	0.48661
648.50	0.50412
649.00	0.52034
649.50	0.49151
650.00	0.48696
650.50	0.48819
651.00	0.49085
651.50	0.47991
652.00	0.49735
652.50	0.47577
653.00	0.46159
653.50	0.48916
654.00	0.49414
654.50	0.46757
655.00	0.46079
655.50	0.46208
656.00	0.47030
656.50	0.44187
657.00	0.44241
657.50	0.42916
658.00	0.45977
658.50	0.42047
659.00	0.42830
659.50	0.43432
660.00	0.41279
660.50	0.42426
661.00	0.41525
661.50	0.43030
662.00	0.39786
662.50	0.40330
663.00	0.38329
663.50	0.40359
664.00	0.39507
664.50	0.38613
665.00	0.40340
665.50	0.38223
666.00	0.39439
666.50	0.39428
667.00	0.36994
667.50	0.40008
668.00	0.38123
668.50	0.36077
669.00	0.33594
669.50	0.33467
670.00	0.35179
670.50	0.34867
671.00	0.34338
671.50	0.33269
672.00	0.34107
672.50	0.32482
673.00	0.34618
673.50	0.31486
674.00	0.33673
674.50	0.32731
675.00	0.29859
675.50	0.30888
676.00	0.32189
676.50	0.28663
677.00	0.29395
677.50	0.32867
678.00	0.31986
678.50	0.26334
679.00	0.28761
679.50	0.29234
680.00	0.28071
680.50	0.28049
681.00	0.27550
681.50	0.29628
682.00	0.26648
682.50	0.25360
683.00	0.24905
683.50	0.24199
684.00	0.25777
684.50	0.24405
685.00	0.26373
685.50	0.27504
686.00	0.23522
686.50	0.25491
687.00	0.25397
687.50	0.22861
688.00	0.22832
688.50	0.20504
689.00	0.24382
689.50	0.21680
690.00	0.19649
690.50	0.23644
691.00	0.23082
691.50	0.23861
692.00	0.20751
692.50	0.23483
693.00	0.21062
693.50	0.22025
694.00	0.21234
694.50	0.21132
695.00	0.18016
695.50	0.17427
696.00	0.20261
696.50	0.16364
697.00	0.19612
697.50	0.17066
698.00	0.16932
698.50	0.20440
699.00	0.17151
699.50	0.19006
700.00	0.17972
700.50	0.17746
701.00	0.18279
701.50	0.15434
702.00	0.15955
702.50	0.16326
703.00	0.17119
703.50	0.16551
704.00	0.17726
704.50	0.14052
705.00	0.15276
705.50	0.18467
706.00	0.16630
706.50	0.13339
707.00	0.15417
707.50	0.14908
708.00	0.16238
708.50	0.12851
709.00	0.15034
709.50	0.14674
710.00	0.12413
710.50	0.16373
711.00	0.14736
711.50	0.12665
712.00	0.15405
712.50	0.14734
713.00	0.10705
713.50	0.15168
714.00	0.10662
714.50	0.14572
715.00	0.13867
715.50	0.14572
716.00	0.14166
716.50	0.12879
717.00	0.095619
717.50	0.11646
718.00	0.082786
718.50	0.086493
719.00	0.10184
719.50	0.13033
720.00	0.11676
720.50	0.13530
721.00	0.11639
721.50	0.088554
722.00	0.10993
722.50	0.11337
723.00	0.089672
723.50	0.15044
724.00	0.13147
724.50	0.13511
725.00	0.094840
725.50	0.11939
726.00	0.099020
726.50	0.11610
727.00	0.074590
727.50	0.087384
728.00	0.067625
728.50	0.087853
729.00	0.074445
729.50	0.10166
730.00	0.091135
730.50	0.087259
731.00	0.096954
731.50	0.069404
732.00	0.11288
732.50	0.076540
733.00	0.077057
733.50	0.12302
734.00	0.068626
734.50	0.11513
735.00	0.10071
735.50	0.10375
736.00	0.12302
736.50	0.075739
737.00	0.10325
737.50	0.080800
738.00	0.069681
738.50	0.092638
739.00	0.066331
739.50	0.10389
740.00	0.10706
740.50	0.067541
741.00	0.087737
741.50	0.067501
742.00	0.081838
742.50	0.056930
743.00	0.064318
743.50	0.11256
744.00	0.048142
744.50	0.070843
745.00	0.054118
745.50	0.098893
746.00	0.052930
746.50	0.098216
747.00	0.058163
747.50	0.044569
748.00	0.065369
748.50	0.030053
749.00	0.067057
749.50	0.10827
750.00	0.079273
