Wavelength (nm)	L-1, 2465-27-2, Auramine O.ems
410.00	0.087374
410.50	0.088533
411.00	0.093348
411.50	0.10202
412.00	0.10469
412.50	0.10801
413.00	0.11328
413.50	0.12254
414.00	0.12609
414.50	0.12493
415.00	0.13361
415.50	0.14023
416.00	0.14014
416.50	0.14429
417.00	0.14587
417.50	0.14799
418.00	0.15365
418.50	0.15381
419.00	0.15798
419.50	0.16220
420.00	0.16172
420.50	0.16979
421.00	0.17488
421.50	0.17635
422.00	0.17365
422.50	0.17984
423.00	0.18097
423.50	0.18440
424.00	0.18330
424.50	0.18396
425.00	0.18870
425.50	0.18680
426.00	0.19159
426.50	0.18894
427.00	0.19487
427.50	0.19217
428.00	0.19420
428.50	0.20385
429.00	0.20129
429.50	0.20907
430.00	0.21013
430.50	0.21440
431.00	0.21542
431.50	0.22311
432.00	0.22469
432.50	0.22775
433.00	0.22813
433.50	0.23221
434.00	0.23627
434.50	0.23834
435.00	0.24450
435.50	0.24858
436.00	0.25423
436.50	0.25345
437.00	0.26177
437.50	0.26101
438.00	0.25867
438.50	0.26465
439.00	0.27172
439.50	0.27314
440.00	0.27833
440.50	0.28027
441.00	0.28402
441.50	0.28910
442.00	0.29020
442.50	0.28922
443.00	0.29984
443.50	0.29962
444.00	0.30788
444.50	0.30722
445.00	0.31539
445.50	0.32341
446.00	0.33358
446.50	0.34113
447.00	0.34302
447.50	0.35841
448.00	0.36800
448.50	0.39077
449.00	0.40647
449.50	0.42325
450.00	0.43736
450.50	0.44841
451.00	0.45486
451.50	0.46629
452.00	0.46320
452.50	0.46060
453.00	0.46039
453.50	0.45676
454.00	0.45399
454.50	0.44880
455.00	0.43681
455.50	0.44491
456.00	0.44691
456.50	0.45713
457.00	0.46247
457.50	0.46971
458.00	0.47793
458.50	0.49068
459.00	0.49466
459.50	0.50626
460.00	0.51480
460.50	0.51826
461.00	0.52677
461.50	0.54061
462.00	0.54070
462.50	0.54419
463.00	0.55168
463.50	0.55169
464.00	0.56368
464.50	0.57048
465.00	0.56996
465.50	0.58131
466.00	0.58433
466.50	0.59626
467.00	0.59622
467.50	0.60466
468.00	0.60596
468.50	0.61936
469.00	0.62058
469.50	0.64573
470.00	0.64220
470.50	0.65338
471.00	0.66866
471.50	0.67632
472.00	0.69098
472.50	0.69190
473.00	0.69885
473.50	0.71478
474.00	0.72032
474.50	0.73228
475.00	0.73556
475.50	0.75101
476.00	0.76126
476.50	0.76759
477.00	0.77010
477.50	0.77882
478.00	0.79127
478.50	0.79801
479.00	0.80884
479.50	0.81209
480.00	0.82694
480.50	0.83247
481.00	0.84761
481.50	0.84656
482.00	0.85912
482.50	0.85976
483.00	0.87381
483.50	0.87684
484.00	0.88220
484.50	0.90115
485.00	0.89440
485.50	0.90596
486.00	0.92150
486.50	0.90808
487.00	0.92159
487.50	0.92703
488.00	0.92945
488.50	0.93659
489.00	0.93725
489.50	0.94635
490.00	0.95511
490.50	0.95722
491.00	0.96382
491.50	0.96601
492.00	0.96281
492.50	0.96899
493.00	0.96862
493.50	0.98549
494.00	0.98158
494.50	0.98126
495.00	0.98511
495.50	0.98644
496.00	0.98530
496.50	0.98827
497.00	0.98419
497.50	0.99748
498.00	0.99677
498.50	0.99348
499.00	0.99688
499.50	1.0000
500.00	0.99010
500.50	0.99486
501.00	0.98290
501.50	0.99406
502.00	0.99684
502.50	0.99663
503.00	0.99614
503.50	0.98160
504.00	0.98897
504.50	0.99303
505.00	0.97952
505.50	0.99011
506.00	0.98397
506.50	0.98296
507.00	0.97832
507.50	0.98239
508.00	0.97101
508.50	0.97845
509.00	0.97355
509.50	0.97433
510.00	0.96716
510.50	0.96037
511.00	0.97018
511.50	0.96145
512.00	0.96733
512.50	0.95861
513.00	0.95120
513.50	0.94620
514.00	0.95013
514.50	0.93894
515.00	0.93869
515.50	0.93275
516.00	0.92989
516.50	0.93563
517.00	0.92319
517.50	0.92156
518.00	0.92152
518.50	0.91792
519.00	0.91314
519.50	0.90501
520.00	0.90529
520.50	0.89554
521.00	0.89522
521.50	0.88655
522.00	0.89062
522.50	0.88310
523.00	0.88880
523.50	0.87183
524.00	0.86335
524.50	0.85603
525.00	0.85458
525.50	0.85179
526.00	0.84314
526.50	0.84619
527.00	0.84344
527.50	0.82582
528.00	0.82842
528.50	0.82982
529.00	0.81679
529.50	0.80964
530.00	0.80468
530.50	0.79231
531.00	0.78562
531.50	0.78613
532.00	0.78651
532.50	0.77065
533.00	0.77949
533.50	0.75936
534.00	0.76292
534.50	0.75938
535.00	0.75119
535.50	0.73780
536.00	0.74365
536.50	0.73034
537.00	0.72866
537.50	0.73260
538.00	0.71955
538.50	0.72047
539.00	0.71295
539.50	0.70565
540.00	0.70566
540.50	0.69156
541.00	0.69452
541.50	0.67993
542.00	0.68406
542.50	0.67779
543.00	0.67106
543.50	0.66165
544.00	0.65919
544.50	0.65880
545.00	0.65164
545.50	0.64908
546.00	0.63324
546.50	0.63222
547.00	0.63080
547.50	0.62060
548.00	0.61407
548.50	0.61336
549.00	0.60987
549.50	0.60304
550.00	0.59092
550.50	0.59433
551.00	0.58966
551.50	0.57865
552.00	0.57483
552.50	0.57176
553.00	0.56143
553.50	0.56321
554.00	0.55121
554.50	0.54791
555.00	0.54363
555.50	0.53383
556.00	0.53196
556.50	0.53811
557.00	0.52455
557.50	0.52631
558.00	0.51402
558.50	0.51889
559.00	0.51043
559.50	0.49890
560.00	0.50126
560.50	0.49641
561.00	0.49313
561.50	0.49056
562.00	0.48304
562.50	0.47827
563.00	0.47153
563.50	0.45987
564.00	0.46742
564.50	0.45410
565.00	0.45939
565.50	0.44987
566.00	0.44656
566.50	0.45181
567.00	0.43858
567.50	0.43838
568.00	0.42988
568.50	0.43073
569.00	0.42764
569.50	0.41559
570.00	0.41638
570.50	0.40744
571.00	0.40328
571.50	0.40338
572.00	0.40116
572.50	0.39342
573.00	0.39314
573.50	0.39134
574.00	0.38554
574.50	0.38429
575.00	0.37963
575.50	0.37084
576.00	0.37451
576.50	0.36310
577.00	0.36333
577.50	0.35804
578.00	0.36058
578.50	0.35590
579.00	0.34677
579.50	0.33908
580.00	0.34059
580.50	0.33484
581.00	0.33373
581.50	0.33566
582.00	0.32861
582.50	0.32391
583.00	0.32493
583.50	0.31513
584.00	0.31718
584.50	0.31073
585.00	0.30635
585.50	0.30891
586.00	0.30499
586.50	0.29279
587.00	0.29567
587.50	0.28814
588.00	0.29277
588.50	0.29140
589.00	0.28586
589.50	0.28362
590.00	0.27930
590.50	0.27120
591.00	0.27621
591.50	0.27558
592.00	0.26913
592.50	0.27141
593.00	0.27027
593.50	0.26368
594.00	0.26452
594.50	0.26214
595.00	0.25935
595.50	0.25270
596.00	0.24959
596.50	0.25074
597.00	0.24316
597.50	0.24617
598.00	0.24187
598.50	0.23413
599.00	0.23362
599.50	0.23246
600.00	0.23156
600.50	0.23306
601.00	0.22736
601.50	0.21827
602.00	0.21572
602.50	0.21965
603.00	0.21631
603.50	0.21268
604.00	0.21162
604.50	0.20597
605.00	0.21184
605.50	0.19996
606.00	0.20843
606.50	0.20642
607.00	0.20066
607.50	0.19900
608.00	0.19688
608.50	0.19824
609.00	0.18875
609.50	0.18509
610.00	0.18585
610.50	0.17989
611.00	0.18213
611.50	0.17656
612.00	0.18088
612.50	0.17709
613.00	0.17546
613.50	0.17005
614.00	0.17034
614.50	0.17403
615.00	0.17042
615.50	0.16528
616.00	0.17018
616.50	0.16795
617.00	0.16295
617.50	0.15696
618.00	0.15662
618.50	0.15924
619.00	0.15255
619.50	0.15273
620.00	0.15768
620.50	0.14670
621.00	0.15925
621.50	0.14929
622.00	0.15074
622.50	0.14534
623.00	0.13729
623.50	0.13931
624.00	0.14197
624.50	0.13554
625.00	0.14431
625.50	0.13604
626.00	0.13391
626.50	0.13278
627.00	0.12783
627.50	0.12788
628.00	0.12363
628.50	0.12631
629.00	0.12540
629.50	0.12164
630.00	0.12455
630.50	0.11871
631.00	0.12023
631.50	0.12233
632.00	0.11602
632.50	0.11857
633.00	0.11221
633.50	0.12445
634.00	0.12065
634.50	0.11149
635.00	0.10967
635.50	0.10981
636.00	0.10603
636.50	0.10931
637.00	0.10353
637.50	0.10107
638.00	0.098769
638.50	0.10107
639.00	0.10308
639.50	0.094785
640.00	0.089794
640.50	0.10200
641.00	0.094880
641.50	0.096028
642.00	0.094838
642.50	0.094843
643.00	0.091463
643.50	0.096506
644.00	0.085964
644.50	0.088113
645.00	0.090923
645.50	0.092576
646.00	0.089601
646.50	0.088170
647.00	0.083496
647.50	0.082284
648.00	0.078733
648.50	0.080950
649.00	0.081373
649.50	0.076418
650.00	0.077493
650.50	0.082400
651.00	0.075352
651.50	0.073162
652.00	0.079136
652.50	0.077624
653.00	0.076995
653.50	0.073981
654.00	0.069742
654.50	0.070672
655.00	0.075643
655.50	0.066437
656.00	0.063644
656.50	0.070731
657.00	0.066191
657.50	0.067113
658.00	0.070588
658.50	0.066042
659.00	0.062406
659.50	0.062350
660.00	0.060212
660.50	0.063824
661.00	0.055782
661.50	0.060226
662.00	0.060625
662.50	0.060264
663.00	0.061116
663.50	0.061051
664.00	0.051038
664.50	0.050529
665.00	0.051022
665.50	0.057402
666.00	0.054642
666.50	0.047097
667.00	0.049090
667.50	0.049019
668.00	0.050229
668.50	0.048858
669.00	0.056499
669.50	0.048100
670.00	0.053671
670.50	0.053978
671.00	0.047289
671.50	0.048637
672.00	0.048479
672.50	0.047550
673.00	0.043961
673.50	0.039639
674.00	0.040349
674.50	0.039067
675.00	0.038900
675.50	0.044269
676.00	0.044489
676.50	0.033786
677.00	0.046348
677.50	0.035789
678.00	0.040007
678.50	0.043451
679.00	0.036332
679.50	0.033169
680.00	0.034494
680.50	0.031878
681.00	0.037455
681.50	0.036225
682.00	0.040466
682.50	0.035704
683.00	0.040078
683.50	0.036498
684.00	0.030445
684.50	0.033681
685.00	0.027431
685.50	0.028252
686.00	0.029077
686.50	0.034910
687.00	0.034066
687.50	0.035333
688.00	0.030086
688.50	0.031230
689.00	0.027222
689.50	0.030949
690.00	0.023745
690.50	0.028251
691.00	0.019474
691.50	0.018780
692.00	0.023220
692.50	0.022316
693.00	0.025957
693.50	0.025596
694.00	0.019727
694.50	0.015994
695.00	0.023675
695.50	0.024539
696.00	0.018866
696.50	0.029237
697.00	0.025795
697.50	0.026789
698.00	0.024316
698.50	0.021456
699.00	0.018203
699.50	0.016792
700.00	0.017021
