Wavelength (nm)	N11 abs N
220.00	0.26645
220.25	0.27132
220.50	0.27191
220.75	0.27195
221.00	0.27429
221.25	0.27277
221.50	0.27439
221.75	0.27571
222.00	0.27700
222.25	0.27804
222.50	0.28058
222.75	0.27933
223.00	0.27756
223.25	0.27647
223.50	0.28019
223.75	0.28252
224.00	0.28204
224.25	0.28323
224.50	0.28417
224.75	0.28211
225.00	0.28367
225.25	0.28195
225.50	0.28476
225.75	0.28250
226.00	0.28243
226.25	0.28168
226.50	0.28342
226.75	0.28405
227.00	0.28158
227.25	0.28103
227.50	0.28254
227.75	0.27737
228.00	0.28174
228.25	0.27890
228.50	0.27820
228.75	0.27852
229.00	0.27874
229.25	0.27553
229.50	0.27649
229.75	0.27559
230.00	0.27547
230.25	0.27567
230.50	0.27674
230.75	0.27550
231.00	0.27530
231.25	0.27561
231.50	0.27481
231.75	0.27188
232.00	0.27402
232.25	0.27551
232.50	0.27407
232.75	0.27465
233.00	0.27425
233.25	0.27429
233.50	0.27514
233.75	0.27453
234.00	0.27716
234.25	0.27798
234.50	0.27742
234.75	0.27903
235.00	0.27707
235.25	0.27718
235.50	0.27793
235.75	0.27992
236.00	0.28382
236.25	0.28324
236.50	0.28164
236.75	0.28159
237.00	0.28149
237.25	0.28264
237.50	0.28049
237.75	0.27893
238.00	0.27806
238.25	0.27766
238.50	0.27608
238.75	0.27513
239.00	0.27385
239.25	0.27201
239.50	0.26902
239.75	0.26667
240.00	0.26675
240.25	0.26347
240.50	0.26005
240.75	0.25756
241.00	0.25500
241.25	0.25055
241.50	0.24851
241.75	0.24463
242.00	0.24310
242.25	0.23616
242.50	0.23446
242.75	0.23077
243.00	0.23013
243.25	0.22911
243.50	0.22975
243.75	0.22945
244.00	0.22993
244.25	0.22985
244.50	0.22944
244.75	0.22965
245.00	0.23094
245.25	0.23146
245.50	0.23371
245.75	0.23341
246.00	0.23464
246.25	0.23649
246.50	0.23626
246.75	0.23696
247.00	0.23794
247.25	0.23805
247.50	0.23680
247.75	0.23593
248.00	0.23465
248.25	0.23232
248.50	0.23412
248.75	0.23509
249.00	0.23945
249.25	0.24314
249.50	0.24945
249.75	0.25307
250.00	0.25825
250.25	0.25959
250.50	0.26232
250.75	0.26535
251.00	0.26636
251.25	0.26871
251.50	0.27130
251.75	0.27258
252.00	0.27422
252.25	0.27563
252.50	0.27530
252.75	0.27465
253.00	0.27503
253.25	0.27175
253.50	0.26783
253.75	0.26316
254.00	0.26020
254.25	0.26030
254.50	0.25827
254.75	0.25983
255.00	0.26225
255.25	0.26652
255.50	0.26779
255.75	0.27331
256.00	0.27570
256.25	0.28116
256.50	0.28191
256.75	0.28541
257.00	0.28841
257.25	0.28778
257.50	0.28913
257.75	0.28902
258.00	0.29247
258.25	0.29185
258.50	0.29287
258.75	0.29266
259.00	0.29050
259.25	0.29022
259.50	0.28522
259.75	0.28013
260.00	0.27426
260.25	0.27023
260.50	0.26777
260.75	0.26341
261.00	0.25992
261.25	0.26070
261.50	0.25910
261.75	0.25676
262.00	0.25421
262.25	0.25212
262.50	0.24917
262.75	0.24473
263.00	0.24199
263.25	0.23870
263.50	0.23481
263.75	0.23032
264.00	0.22370
264.25	0.21891
264.50	0.21656
264.75	0.21230
265.00	0.20890
265.25	0.20575
265.50	0.20149
265.75	0.19791
266.00	0.19436
266.25	0.19188
266.50	0.18759
266.75	0.18377
267.00	0.18173
267.25	0.17871
267.50	0.17586
267.75	0.17395
268.00	0.17004
268.25	0.16831
268.50	0.16656
268.75	0.16566
269.00	0.16295
269.25	0.16317
269.50	0.16155
269.75	0.16019
270.00	0.16032
270.25	0.15901
270.50	0.15901
270.75	0.15896
271.00	0.15815
271.25	0.15818
271.50	0.15594
271.75	0.15587
272.00	0.15621
272.25	0.15632
272.50	0.15412
272.75	0.15535
273.00	0.15546
273.25	0.15583
273.50	0.15719
273.75	0.15534
274.00	0.15583
274.25	0.15477
274.50	0.15536
274.75	0.15493
275.00	0.15454
275.25	0.15285
275.50	0.15472
275.75	0.15357
276.00	0.15289
276.25	0.15424
276.50	0.15334
276.75	0.15207
277.00	0.15272
277.25	0.15127
277.50	0.15124
277.75	0.15121
278.00	0.15013
278.25	0.14908
278.50	0.14815
278.75	0.14593
279.00	0.14623
279.25	0.14562
279.50	0.14422
279.75	0.14520
280.00	0.14503
280.25	0.14401
280.50	0.14269
280.75	0.14197
281.00	0.14068
281.25	0.14038
281.50	0.13899
281.75	0.13905
282.00	0.13890
282.25	0.13751
282.50	0.13763
282.75	0.13729
283.00	0.13519
283.25	0.13415
283.50	0.13403
283.75	0.13507
284.00	0.13356
284.25	0.13267
284.50	0.13264
284.75	0.13235
285.00	0.13086
285.25	0.12954
285.50	0.12903
285.75	0.13070
286.00	0.12944
286.25	0.12944
286.50	0.13035
286.75	0.12936
287.00	0.12996
287.25	0.12851
287.50	0.12895
287.75	0.12866
288.00	0.12693
288.25	0.12813
288.50	0.12872
288.75	0.12702
289.00	0.12841
289.25	0.12772
289.50	0.12747
289.75	0.12723
290.00	0.12985
290.25	0.12945
290.50	0.12907
290.75	0.12897
291.00	0.12716
291.25	0.12819
291.50	0.13046
291.75	0.12906
292.00	0.12960
292.25	0.13002
292.50	0.13080
292.75	0.13056
293.00	0.13121
293.25	0.13192
293.50	0.13084
293.75	0.13269
294.00	0.13357
294.25	0.13322
294.50	0.13406
294.75	0.13533
295.00	0.13364
295.25	0.13548
295.50	0.13454
295.75	0.13629
296.00	0.13618
296.25	0.13781
296.50	0.13771
296.75	0.13802
297.00	0.13711
297.25	0.13859
297.50	0.14049
297.75	0.13973
298.00	0.14124
298.25	0.14088
298.50	0.14191
298.75	0.14056
299.00	0.14210
299.25	0.14417
299.50	0.14286
299.75	0.14368
300.00	0.14397
300.25	0.14525
300.50	0.14637
300.75	0.14768
301.00	0.14755
301.25	0.14723
301.50	0.14773
301.75	0.15015
302.00	0.15013
302.25	0.15134
302.50	0.15212
302.75	0.15210
303.00	0.15163
303.25	0.15302
303.50	0.15149
303.75	0.15461
304.00	0.15231
304.25	0.15583
304.50	0.15294
304.75	0.15599
305.00	0.15415
305.25	0.15390
305.50	0.15322
305.75	0.15287
306.00	0.15250
306.25	0.15398
306.50	0.15440
306.75	0.15277
307.00	0.15143
307.25	0.15089
307.50	0.14975
307.75	0.14985
308.00	0.14852
308.25	0.14349
308.50	0.14465
308.75	0.14105
309.00	0.14049
309.25	0.13948
309.50	0.13683
309.75	0.13522
310.00	0.13320
310.25	0.12932
310.50	0.12394
310.75	0.12248
311.00	0.12739
311.25	0.12111
311.50	0.11449
311.75	0.11286
312.00	0.10955
312.25	0.10499
312.50	0.11136
312.75	0.10742
313.00	0.099562
313.25	0.098187
313.50	0.10030
313.75	0.095219
314.00	0.092260
314.25	0.089933
314.50	0.084283
314.75	0.078609
315.00	0.076164
315.25	0.079342
315.50	0.076391
315.75	0.076189
316.00	0.071029
316.25	0.067673
316.50	0.068044
316.75	0.064148
317.00	0.064545
317.25	0.064899
317.50	0.065565
317.75	0.055388
318.00	0.061560
318.25	0.054401
318.50	0.049376
318.75	0.053550
319.00	0.054460
319.25	0.052218
319.50	0.052462
319.75	0.049831
320.00	0.053870
320.25	0.041897
320.50	0.046914
320.75	0.046644
321.00	0.046332
321.25	0.041669
321.50	0.044241
321.75	0.042260
322.00	0.043322
322.25	0.040826
322.50	0.038347
322.75	0.035683
323.00	0.038263
323.25	0.043744
323.50	0.039789
323.75	0.037403
324.00	0.034022
324.25	0.034705
324.50	0.033347
324.75	0.036771
325.00	0.035185
325.25	0.040455
325.50	0.031653
325.75	0.033128
326.00	0.031880
326.25	0.029874
326.50	0.031332
326.75	0.034486
327.00	0.032639
327.25	0.030337
327.50	0.035607
327.75	0.027875
328.00	0.031914
328.25	0.030742
328.50	0.027858
328.75	0.031509
329.00	0.027757
329.25	0.026602
329.50	0.030034
329.75	0.024553
330.00	0.033642
330.25	0.029831
330.50	0.029410
330.75	0.031105
331.00	0.029570
331.25	0.029545
331.50	0.024562
331.75	0.032749
332.00	0.032386
332.25	0.036847
332.50	0.032690
332.75	0.030826
333.00	0.031762
333.25	0.033744
333.50	0.031298
333.75	0.041012
334.00	0.034899
334.25	0.036467
334.50	0.036518
334.75	0.035599
335.00	0.037808
335.25	0.035126
335.50	0.036619
335.75	0.036442
336.00	0.039848
336.25	0.036408
336.50	0.039452
336.75	0.039047
337.00	0.044022
337.25	0.044191
337.50	0.044477
337.75	0.046062
338.00	0.047766
338.25	0.044224
338.50	0.047411
338.75	0.049570
339.00	0.043887
339.25	0.045911
339.50	0.048406
339.75	0.046872
340.00	0.051459
340.25	0.053583
340.50	0.048423
340.75	0.052057
341.00	0.055590
341.25	0.053086
341.50	0.052799
341.75	0.053297
342.00	0.053794
342.25	0.053904
342.50	0.051560
342.75	0.054958
343.00	0.057327
343.25	0.058246
343.50	0.059334
343.75	0.056476
344.00	0.062454
344.25	0.061965
344.50	0.054958
344.75	0.060388
345.00	0.065438
345.25	0.057133
345.50	0.060700
345.75	0.061737
346.00	0.062277
346.25	0.065354
346.50	0.063718
346.75	0.063828
347.00	0.063836
347.25	0.065354
347.50	0.069300
347.75	0.067985
348.00	0.068347
348.25	0.073196
348.50	0.072099
348.75	0.072749
349.00	0.072614
349.25	0.074342
349.50	0.081577
349.75	0.073440
350.00	0.079013
350.25	0.077268
350.50	0.075253
350.75	0.076931
351.00	0.081771
351.25	0.081931
351.50	0.086830
351.75	0.081307
352.00	0.084275
352.25	0.086484
352.50	0.084823
352.75	0.087074
353.00	0.090143
353.25	0.088263
353.50	0.087445
353.75	0.088845
354.00	0.087091
354.25	0.090666
354.50	0.089663
354.75	0.090025
355.00	0.093288
355.25	0.093331
355.50	0.093373
355.75	0.087723
356.00	0.090987
356.25	0.095337
356.50	0.090641
356.75	0.091880
357.00	0.091762
357.25	0.095051
357.50	0.088187
357.75	0.090093
358.00	0.088078
358.25	0.087850
358.50	0.087858
358.75	0.088862
359.00	0.087445
359.25	0.087740
359.50	0.082040
359.75	0.088550
360.00	0.086374
360.25	0.085219
360.50	0.083297
360.75	0.081324
361.00	0.083364
361.25	0.076341
361.50	0.080211
361.75	0.080455
362.00	0.078508
362.25	0.075506
362.50	0.078069
362.75	0.076459
363.00	0.073550
363.25	0.070042
363.50	0.073879
363.75	0.069098
364.00	0.072319
364.25	0.067681
364.50	0.066535
364.75	0.065034
365.00	0.061180
365.25	0.064823
365.50	0.065666
365.75	0.064233
366.00	0.059334
366.25	0.056813
366.50	0.056804
366.75	0.055885
367.00	0.057007
367.25	0.052589
367.50	0.053870
367.75	0.054064
368.00	0.052673
368.25	0.050329
368.50	0.052960
368.75	0.050455
369.00	0.048491
369.25	0.047648
369.50	0.048777
369.75	0.047066
370.00	0.044865
370.25	0.050118
370.50	0.044747
370.75	0.040843
371.00	0.041990
371.25	0.041788
371.50	0.043946
371.75	0.038912
372.00	0.038002
372.25	0.038988
372.50	0.035927
372.75	0.037116
373.00	0.035278
373.25	0.041020
373.50	0.037656
373.75	0.036678
374.00	0.036695
374.25	0.034056
374.50	0.031914
374.75	0.034174
375.00	0.033137
375.25	0.033263
375.50	0.033583
375.75	0.032867
376.00	0.033533
376.25	0.032799
376.50	0.033609
376.75	0.031501
377.00	0.031442
377.25	0.031079
377.50	0.032926
377.75	0.030894
378.00	0.032791
378.25	0.027378
378.50	0.032099
378.75	0.031206
379.00	0.030135
379.25	0.029334
379.50	0.030523
379.75	0.028971
380.00	0.028145
380.25	0.029359
380.50	0.030540
380.75	0.029899
381.00	0.032555
381.25	0.028280
381.50	0.030573
381.75	0.027698
382.00	0.028347
382.25	0.027032
382.50	0.029022
382.75	0.029047
383.00	0.027133
383.25	0.029064
383.50	0.032420
383.75	0.027513
384.00	0.031121
384.25	0.031341
384.50	0.029578
384.75	0.032580
385.00	0.030388
385.25	0.030708
385.50	0.032690
385.75	0.028702
386.00	0.029823
386.25	0.033179
386.50	0.032319
386.75	0.032833
387.00	0.034199
387.25	0.030110
387.50	0.030742
387.75	0.033769
388.00	0.032496
388.25	0.032091
388.50	0.032732
388.75	0.031332
389.00	0.031796
389.25	0.031990
389.50	0.033423
389.75	0.032934
390.00	0.033558
390.25	0.032243
390.50	0.030278
390.75	0.034882
391.00	0.034882
391.25	0.033659
391.50	0.030708
391.75	0.031155
392.00	0.032184
392.25	0.032445
392.50	0.031627
392.75	0.032184
393.00	0.032344
393.25	0.032243
393.50	0.034224
393.75	0.031804
394.00	0.033212
394.25	0.033187
394.50	0.033550
394.75	0.034924
395.00	0.030809
395.25	0.033491
395.50	0.033196
395.75	0.033482
396.00	0.034528
396.25	0.031669
396.50	0.035025
396.75	0.031745
397.00	0.034224
397.25	0.033153
397.50	0.032614
397.75	0.033373
398.00	0.032976
398.25	0.031965
398.50	0.032774
398.75	0.033196
399.00	0.034511
399.25	0.030658
399.50	0.031433
399.75	0.034401
400.00	0.033347
400.25	0.034410
400.50	0.029815
400.75	0.033702
401.00	0.030287
401.25	0.033052
401.50	0.030363
401.75	0.030211
402.00	0.031113
402.25	0.031779
402.50	0.030742
402.75	0.031079
403.00	0.032808
403.25	0.032664
403.50	0.030329
403.75	0.028398
404.00	0.030346
404.25	0.032108
404.50	0.031088
404.75	0.029966
405.00	0.031003
405.25	0.029612
405.50	0.030860
405.75	0.030413
406.00	0.031012
406.25	0.031627
406.50	0.030042
406.75	0.028533
407.00	0.029199
407.25	0.029680
407.50	0.031239
407.75	0.029882
408.00	0.028904
408.25	0.029342
408.50	0.030143
408.75	0.029654
409.00	0.028541
409.25	0.029325
409.50	0.028777
409.75	0.028575
410.00	0.031636
410.25	0.030245
410.50	0.028583
410.75	0.031476
411.00	0.029123
411.25	0.029705
411.50	0.029637
411.75	0.028491
412.00	0.028904
412.25	0.030295
412.50	0.030051
412.75	0.028558
413.00	0.028626
413.25	0.029384
413.50	0.027057
413.75	0.028567
414.00	0.028373
414.25	0.030245
414.50	0.027960
414.75	0.027943
415.00	0.028491
415.25	0.029039
415.50	0.029005
415.75	0.027462
416.00	0.027285
416.25	0.027664
416.50	0.026636
416.75	0.027884
417.00	0.027597
417.25	0.025236
417.50	0.027673
417.75	0.026088
418.00	0.025540
418.25	0.026956
418.50	0.024376
418.75	0.026282
419.00	0.025860
419.25	0.024115
419.50	0.024983
419.75	0.024115
420.00	0.023803
420.25	0.024587
420.50	0.023710
420.75	0.023052
421.00	0.023356
421.25	0.022892
421.50	0.022243
421.75	0.023027
422.00	0.022428
422.25	0.022369
422.50	0.021332
422.75	0.021383
423.00	0.021585
423.25	0.021863
423.50	0.021029
423.75	0.021324
424.00	0.021206
424.25	0.021037
424.50	0.021425
424.75	0.018229
425.00	0.020481
425.25	0.019764
425.50	0.018609
425.75	0.017513
426.00	0.017150
426.25	0.017766
426.50	0.019123
426.75	0.018904
427.00	0.016914
427.25	0.016138
427.50	0.016164
427.75	0.016939
428.00	0.016948
428.25	0.016164
428.50	0.015084
428.75	0.015675
429.00	0.015110
429.25	0.014781
429.50	0.013718
429.75	0.015624
430.00	0.014266
430.25	0.015818
430.50	0.013449
430.75	0.013314
431.00	0.014359
431.25	0.013558
431.50	0.012184
431.75	0.013668
432.00	0.012799
432.25	0.011931
432.50	0.013339
432.75	0.012976
433.00	0.011105
433.25	0.013583
433.50	0.0090894
433.75	0.010565
434.00	0.013002
434.25	0.011265
434.50	0.013153
434.75	0.012175
435.00	0.010354
435.25	0.012639
435.50	0.011358
435.75	0.010843
436.00	0.010413
436.25	0.0099578
436.50	0.011172
436.75	0.010590
437.00	0.0098651
437.25	0.011231
437.50	0.011273
437.75	0.010278
438.00	0.010531
438.25	0.0094688
438.50	0.010346
438.75	0.0088617
439.00	0.0099241
439.25	0.0093255
439.50	0.011113
439.75	0.010641
440.00	0.010632
440.25	0.0091821
440.50	0.010228
440.75	0.011998
441.00	0.0098567
441.25	0.0090219
441.50	0.0099410
441.75	0.010481
442.00	0.011855
442.25	0.0096880
442.50	0.011079
442.75	0.0096880
443.00	0.010346
443.25	0.0088786
443.50	0.011358
443.75	0.010067
444.00	0.013069
444.25	0.011155
444.50	0.010363
444.75	0.011256
445.00	0.0097470
445.25	0.012580
445.50	0.011046
445.75	0.010430
446.00	0.010683
446.25	0.013980
446.50	0.014924
446.75	0.013558
447.00	0.012251
447.25	0.011788
447.50	0.011745
447.75	0.014115
448.00	0.012218
448.25	0.011088
448.50	0.013634
448.75	0.014368
449.00	0.012083
449.25	0.013727
449.50	0.013288
449.75	0.012631
450.00	0.013693
450.25	0.015143
450.50	0.014309
450.75	0.015675
451.00	0.014916
451.25	0.014747
451.50	0.016105
451.75	0.014562
452.00	0.016341
452.25	0.017681
452.50	0.015658
452.75	0.016568
453.00	0.017336
453.25	0.016206
453.50	0.017192
453.75	0.017133
454.00	0.018128
454.25	0.019376
454.50	0.019376
454.75	0.017066
455.00	0.017960
455.25	0.019292
455.50	0.019494
455.75	0.019722
456.00	0.019781
456.25	0.019924
456.50	0.020245
456.75	0.020936
457.00	0.021535
457.25	0.022614
457.50	0.024283
457.75	0.021088
458.00	0.024325
458.25	0.021341
458.50	0.024266
458.75	0.024789
459.00	0.024747
459.25	0.025430
459.50	0.025337
459.75	0.027428
460.00	0.026560
460.25	0.027260
460.50	0.028617
460.75	0.028954
461.00	0.028634
461.25	0.029148
461.50	0.030287
461.75	0.030953
462.00	0.031121
462.25	0.030826
462.50	0.033693
462.75	0.032504
463.00	0.032622
463.25	0.034739
463.50	0.033659
463.75	0.034452
464.00	0.036543
464.25	0.035616
464.50	0.036155
464.75	0.035835
465.00	0.038162
465.25	0.038331
465.50	0.038482
465.75	0.038887
466.00	0.039562
466.25	0.041703
466.50	0.041332
466.75	0.041914
467.00	0.043103
467.25	0.043735
467.50	0.043575
467.75	0.044089
468.00	0.044587
468.25	0.046509
468.50	0.045911
468.75	0.045126
469.00	0.045641
469.25	0.047622
469.50	0.048676
469.75	0.049941
470.00	0.049191
470.25	0.049646
470.50	0.049831
470.75	0.050666
471.00	0.050725
471.25	0.054064
471.50	0.054258
471.75	0.054553
472.00	0.054073
472.25	0.055700
472.50	0.057251
472.75	0.057116
473.00	0.059089
473.25	0.058718
473.50	0.058575
473.75	0.062639
474.00	0.061965
474.25	0.061189
474.50	0.063356
474.75	0.062749
475.00	0.064047
475.25	0.063634
475.50	0.067142
475.75	0.065422
476.00	0.069486
476.25	0.069604
476.50	0.070936
476.75	0.069595
477.00	0.070750
477.25	0.073364
477.50	0.072024
477.75	0.074789
478.00	0.074351
478.25	0.077142
478.50	0.076357
478.75	0.078685
479.00	0.078904
479.25	0.081029
479.50	0.080793
479.75	0.082420
480.00	0.083845
480.25	0.084359
480.50	0.085894
480.75	0.085599
481.00	0.086391
481.25	0.090835
481.50	0.088946
481.75	0.093390
482.00	0.091931
482.25	0.094503
482.50	0.095725
482.75	0.096484
483.00	0.098069
483.25	0.098280
483.50	0.10116
483.75	0.10161
484.00	0.10567
484.25	0.10465
484.50	0.10753
484.75	0.10873
485.00	0.10874
485.25	0.11270
485.50	0.11248
485.75	0.11463
486.00	0.11734
486.25	0.11749
486.50	0.11847
486.75	0.11981
487.00	0.12246
487.25	0.12435
487.50	0.12678
487.75	0.12831
488.00	0.13027
488.25	0.13380
488.50	0.13441
488.75	0.13798
489.00	0.13707
489.25	0.14225
489.50	0.14212
489.75	0.14497
490.00	0.14758
490.25	0.14895
490.50	0.15312
490.75	0.15291
491.00	0.15708
491.25	0.15862
491.50	0.16195
491.75	0.16631
492.00	0.16766
492.25	0.16956
492.50	0.16821
492.75	0.17494
493.00	0.17623
493.25	0.17770
493.50	0.18234
493.75	0.18176
494.00	0.18652
494.25	0.18954
494.50	0.18975
494.75	0.19330
495.00	0.19536
495.25	0.19790
495.50	0.19985
495.75	0.20533
496.00	0.20427
496.25	0.21017
496.50	0.21298
496.75	0.21599
497.00	0.21785
497.25	0.22057
497.50	0.22274
497.75	0.22508
498.00	0.22794
498.25	0.23156
498.50	0.23357
498.75	0.23790
499.00	0.23899
499.25	0.24454
499.50	0.24792
499.75	0.24946
500.00	0.25096
500.25	0.25475
500.50	0.25777
500.75	0.25997
501.00	0.26271
501.25	0.26544
501.50	0.26951
501.75	0.27047
502.00	0.27325
502.25	0.27616
502.50	0.27763
502.75	0.28228
503.00	0.28299
503.25	0.28795
503.50	0.28877
503.75	0.28973
504.00	0.29298
504.25	0.29614
504.50	0.29815
504.75	0.29954
505.00	0.30169
505.25	0.30330
505.50	0.30833
505.75	0.30836
506.00	0.31265
506.25	0.31342
506.50	0.31383
506.75	0.31726
507.00	0.31627
507.25	0.32140
507.50	0.32317
507.75	0.32212
508.00	0.32877
508.25	0.32927
508.50	0.33191
508.75	0.33082
509.00	0.33228
509.25	0.33578
509.50	0.33790
509.75	0.33961
510.00	0.34328
510.25	0.34370
510.50	0.34738
510.75	0.34849
511.00	0.34954
511.25	0.35169
511.50	0.35294
511.75	0.35496
512.00	0.35648
512.25	0.35862
512.50	0.36292
512.75	0.36578
513.00	0.36704
513.25	0.36933
513.50	0.36887
513.75	0.37261
514.00	0.37365
514.25	0.37814
514.50	0.38128
514.75	0.38293
515.00	0.38493
515.25	0.38984
515.50	0.38954
515.75	0.39387
516.00	0.39845
516.25	0.40271
516.50	0.40508
516.75	0.40758
517.00	0.41152
517.25	0.41610
517.50	0.41652
517.75	0.42151
518.00	0.42399
518.25	0.42772
518.50	0.43211
518.75	0.43444
519.00	0.43988
519.25	0.44108
519.50	0.44698
519.75	0.45008
520.00	0.45195
520.25	0.45864
520.50	0.46112
520.75	0.46782
