Wavelength (nm)	O-1, 1091-85-6, Dansyl glycine, dioxane.ems
315.00	0.0098966
315.50	0.0098345
316.00	0.0095640
316.50	0.0094337
317.00	0.0094513
317.50	0.0099098
318.00	0.0097119
318.50	0.0099618
319.00	0.0098701
319.50	0.010129
320.00	0.010082
320.50	0.010367
321.00	0.010595
321.50	0.010911
322.00	0.011044
322.50	0.011580
323.00	0.011683
323.50	0.012321
324.00	0.012773
324.50	0.013515
325.00	0.014609
325.50	0.016935
326.00	0.018042
326.50	0.021260
327.00	0.022940
327.50	0.026143
328.00	0.027902
328.50	0.028980
329.00	0.028965
329.50	0.027584
330.00	0.026001
330.50	0.022784
331.00	0.020859
331.50	0.018651
332.00	0.017488
332.50	0.017130
333.00	0.016558
333.50	0.016583
334.00	0.016824
334.50	0.016569
335.00	0.017047
335.50	0.017002
336.00	0.017346
336.50	0.017525
337.00	0.017714
337.50	0.017954
338.00	0.018222
338.50	0.018737
339.00	0.019087
339.50	0.019582
340.00	0.020192
340.50	0.020622
341.00	0.021077
341.50	0.021339
342.00	0.021856
342.50	0.022410
343.00	0.022574
343.50	0.023155
344.00	0.023586
344.50	0.023921
345.00	0.024270
345.50	0.024628
346.00	0.024579
346.50	0.025282
347.00	0.025286
347.50	0.026154
348.00	0.025932
348.50	0.026350
349.00	0.026769
349.50	0.027879
350.00	0.028135
350.50	0.028271
351.00	0.028777
351.50	0.029561
352.00	0.029802
352.50	0.030207
353.00	0.030885
353.50	0.031365
354.00	0.031864
354.50	0.032117
355.00	0.031979
355.50	0.033041
356.00	0.033276
356.50	0.033278
357.00	0.033627
357.50	0.034383
358.00	0.034215
358.50	0.034609
359.00	0.034960
359.50	0.035355
360.00	0.035321
360.50	0.035591
361.00	0.035883
361.50	0.035724
362.00	0.036290
362.50	0.036261
363.00	0.036363
363.50	0.036701
364.00	0.036781
364.50	0.036899
365.00	0.036687
365.50	0.037298
366.00	0.037248
366.50	0.036959
367.00	0.037387
367.50	0.037966
368.00	0.037748
368.50	0.037948
369.00	0.038036
369.50	0.038492
370.00	0.038396
370.50	0.037638
371.00	0.038315
371.50	0.038269
372.00	0.038718
372.50	0.038169
373.00	0.037994
373.50	0.038724
374.00	0.038354
374.50	0.038354
375.00	0.038832
375.50	0.038703
376.00	0.039286
376.50	0.038978
377.00	0.039042
377.50	0.038968
378.00	0.038911
378.50	0.039435
379.00	0.039031
379.50	0.039731
380.00	0.039589
380.50	0.039355
381.00	0.039305
381.50	0.039167
382.00	0.038759
382.50	0.038683
383.00	0.038730
383.50	0.039111
384.00	0.038677
384.50	0.037996
385.00	0.038846
385.50	0.038468
386.00	0.038598
386.50	0.038842
387.00	0.038769
387.50	0.039206
388.00	0.038881
388.50	0.039367
389.00	0.039537
389.50	0.039450
390.00	0.039453
390.50	0.040237
391.00	0.040515
391.50	0.039960
392.00	0.040066
392.50	0.040211
393.00	0.040461
393.50	0.040642
394.00	0.041010
394.50	0.040562
395.00	0.040953
395.50	0.040884
396.00	0.040945
396.50	0.040739
397.00	0.041436
397.50	0.040884
398.00	0.040960
398.50	0.040736
399.00	0.040873
399.50	0.041344
400.00	0.041158
400.50	0.041748
401.00	0.040946
401.50	0.041082
402.00	0.040862
402.50	0.041373
403.00	0.040460
403.50	0.041361
404.00	0.041449
404.50	0.041341
405.00	0.041546
405.50	0.041728
406.00	0.041786
406.50	0.042152
407.00	0.042742
407.50	0.042769
408.00	0.043622
408.50	0.044364
409.00	0.043996
409.50	0.045053
410.00	0.045343
410.50	0.045588
411.00	0.046311
411.50	0.047335
412.00	0.047355
412.50	0.048477
413.00	0.049166
413.50	0.050140
414.00	0.050756
414.50	0.051743
415.00	0.052675
415.50	0.054049
416.00	0.054943
416.50	0.056123
417.00	0.057587
417.50	0.059196
418.00	0.059861
418.50	0.061708
419.00	0.062276
419.50	0.064509
420.00	0.065827
420.50	0.067400
421.00	0.069912
421.50	0.071807
422.00	0.073067
422.50	0.075428
423.00	0.077599
423.50	0.079938
424.00	0.082102
424.50	0.085516
425.00	0.086865
425.50	0.091251
426.00	0.093608
426.50	0.096792
427.00	0.099041
427.50	0.10539
428.00	0.10697
428.50	0.11160
429.00	0.11517
429.50	0.12024
430.00	0.12358
430.50	0.12910
431.00	0.13307
431.50	0.13885
432.00	0.14284
432.50	0.14907
433.00	0.15339
433.50	0.16024
434.00	0.16510
434.50	0.17163
435.00	0.17673
435.50	0.18465
436.00	0.18890
436.50	0.19599
437.00	0.20197
437.50	0.21017
438.00	0.21498
438.50	0.22221
439.00	0.22903
439.50	0.23627
440.00	0.24343
440.50	0.25074
441.00	0.25622
441.50	0.26542
442.00	0.27217
442.50	0.28266
443.00	0.28782
443.50	0.29859
444.00	0.30514
444.50	0.31331
445.00	0.32125
445.50	0.33269
446.00	0.33742
446.50	0.34736
447.00	0.35636
447.50	0.36903
448.00	0.37295
448.50	0.38598
449.00	0.39303
449.50	0.40644
450.00	0.41266
450.50	0.42470
451.00	0.43246
451.50	0.44651
452.00	0.45330
452.50	0.46679
453.00	0.47641
453.50	0.48978
454.00	0.49602
454.50	0.50989
455.00	0.51710
455.50	0.53307
456.00	0.53955
456.50	0.55300
457.00	0.56392
457.50	0.57713
458.00	0.58432
458.50	0.59488
459.00	0.60362
459.50	0.61564
460.00	0.62532
460.50	0.63495
461.00	0.64334
461.50	0.65863
462.00	0.66173
462.50	0.67455
463.00	0.68050
463.50	0.69290
464.00	0.69927
464.50	0.71055
465.00	0.71855
465.50	0.73001
466.00	0.73485
466.50	0.74708
467.00	0.75587
467.50	0.76351
468.00	0.77080
468.50	0.78076
469.00	0.78733
469.50	0.80046
470.00	0.80369
470.50	0.81136
471.00	0.81804
471.50	0.82783
472.00	0.83491
472.50	0.84190
473.00	0.84974
473.50	0.85770
474.00	0.86259
474.50	0.87138
475.00	0.87940
475.50	0.88531
476.00	0.89018
476.50	0.89905
477.00	0.90374
477.50	0.91079
478.00	0.91688
478.50	0.92077
479.00	0.92415
479.50	0.92997
480.00	0.93532
480.50	0.93721
481.00	0.94044
481.50	0.94995
482.00	0.95215
482.50	0.95462
483.00	0.95937
483.50	0.96199
484.00	0.96625
484.50	0.97110
485.00	0.97175
485.50	0.97355
486.00	0.97864
486.50	0.98241
487.00	0.98477
487.50	0.98658
488.00	0.98665
488.50	0.98856
489.00	0.98926
489.50	0.99019
490.00	0.99217
490.50	0.99604
491.00	0.99380
491.50	0.99693
492.00	0.99991
492.50	0.99682
493.00	0.99925
493.50	0.99818
494.00	0.99496
494.50	0.99724
495.00	0.99974
495.50	1.0000
496.00	0.99697
496.50	0.99741
497.00	0.99685
497.50	0.99588
498.00	0.99742
498.50	0.99403
499.00	0.99199
499.50	0.99138
500.00	0.99201
500.50	0.98970
501.00	0.98454
501.50	0.98252
502.00	0.98479
502.50	0.98144
503.00	0.97550
503.50	0.97289
504.00	0.97012
504.50	0.96431
505.00	0.96464
505.50	0.96053
506.00	0.95807
506.50	0.95767
507.00	0.95164
507.50	0.94687
508.00	0.94475
508.50	0.94138
509.00	0.93656
509.50	0.93527
510.00	0.92896
510.50	0.92641
511.00	0.92386
511.50	0.91929
512.00	0.91376
512.50	0.91375
513.00	0.90983
513.50	0.89965
514.00	0.90011
514.50	0.89336
515.00	0.89061
515.50	0.88564
516.00	0.88395
516.50	0.87581
517.00	0.87331
517.50	0.86844
518.00	0.86467
518.50	0.85820
519.00	0.85599
519.50	0.84843
520.00	0.84603
520.50	0.84211
521.00	0.83606
521.50	0.82991
522.00	0.82598
522.50	0.81786
523.00	0.81649
523.50	0.81045
524.00	0.80571
524.50	0.80031
525.00	0.79541
525.50	0.78555
526.00	0.78506
526.50	0.77816
527.00	0.77284
527.50	0.76177
528.00	0.76113
528.50	0.75402
529.00	0.74890
529.50	0.74211
530.00	0.73614
530.50	0.73119
531.00	0.72399
531.50	0.71663
532.00	0.71564
532.50	0.70764
533.00	0.70062
533.50	0.69501
534.00	0.69073
534.50	0.68535
535.00	0.68027
535.50	0.67164
536.00	0.66946
536.50	0.66315
537.00	0.65944
537.50	0.65299
538.00	0.64924
538.50	0.64339
539.00	0.63777
539.50	0.63129
540.00	0.62950
540.50	0.62320
541.00	0.61687
541.50	0.61066
542.00	0.60511
542.50	0.59822
543.00	0.59824
543.50	0.59015
544.00	0.58718
544.50	0.57977
545.00	0.57319
545.50	0.56714
546.00	0.56535
546.50	0.55740
547.00	0.55351
547.50	0.54619
548.00	0.54381
548.50	0.53729
549.00	0.53167
549.50	0.52708
550.00	0.52383
550.50	0.51822
551.00	0.51373
551.50	0.50680
552.00	0.50352
552.50	0.49729
553.00	0.49244
553.50	0.48636
554.00	0.48262
554.50	0.47648
555.00	0.47206
555.50	0.46613
556.00	0.46397
556.50	0.45676
557.00	0.45270
557.50	0.44866
558.00	0.44603
558.50	0.43889
559.00	0.43688
559.50	0.43043
560.00	0.42716
560.50	0.42329
561.00	0.41849
561.50	0.41281
562.00	0.41138
562.50	0.40622
563.00	0.40076
563.50	0.39557
564.00	0.39161
564.50	0.38696
565.00	0.38465
565.50	0.37871
566.00	0.37864
566.50	0.37133
567.00	0.36931
567.50	0.36481
568.00	0.36090
568.50	0.35843
569.00	0.35290
569.50	0.34746
570.00	0.34601
570.50	0.33963
571.00	0.33743
571.50	0.33358
572.00	0.33066
572.50	0.32595
573.00	0.32503
573.50	0.31913
574.00	0.31800
574.50	0.31180
575.00	0.30867
575.50	0.30434
576.00	0.30315
576.50	0.29778
577.00	0.29479
577.50	0.29040
578.00	0.28649
578.50	0.28428
579.00	0.28149
579.50	0.27698
580.00	0.27513
580.50	0.27226
581.00	0.26845
581.50	0.26587
582.00	0.26367
582.50	0.25844
583.00	0.25492
583.50	0.25312
584.00	0.25220
584.50	0.24786
585.00	0.24505
585.50	0.24235
586.00	0.23844
586.50	0.23514
587.00	0.23237
587.50	0.22931
588.00	0.22827
588.50	0.22416
589.00	0.22360
589.50	0.22057
590.00	0.21804
590.50	0.21532
591.00	0.21410
591.50	0.20992
592.00	0.20925
592.50	0.20519
593.00	0.20321
593.50	0.19993
594.00	0.19913
594.50	0.19583
595.00	0.19309
