Wavelength (nm)	S09 abs N
300.06	0.17557
300.25	0.17538
300.44	0.17533
300.63	0.17438
300.81	0.17449
301.00	0.17507
301.19	0.17482
301.38	0.17453
301.56	0.17497
301.75	0.17486
301.94	0.17547
302.13	0.17560
302.31	0.17577
302.50	0.17594
302.69	0.17566
302.88	0.17614
303.06	0.17671
303.25	0.17599
303.44	0.17659
303.63	0.17764
303.81	0.17830
304.00	0.17806
304.19	0.17888
304.38	0.17893
304.56	0.17840
304.75	0.17822
304.94	0.17890
305.13	0.17901
305.31	0.18055
305.50	0.18171
305.69	0.18205
305.88	0.18263
306.06	0.18325
306.25	0.18413
306.44	0.18462
306.63	0.18478
306.81	0.18481
307.00	0.18555
307.19	0.18625
307.38	0.18659
307.56	0.18788
307.75	0.18923
307.94	0.19000
308.13	0.19130
308.31	0.19258
308.50	0.19232
308.69	0.19395
308.88	0.19391
309.06	0.19492
309.25	0.19569
309.44	0.19595
309.63	0.19726
309.81	0.20112
310.00	0.20209
310.19	0.19580
310.38	0.20131
310.56	0.19616
310.75	0.20199
310.94	0.20415
311.13	0.19900
311.31	0.20981
311.50	0.20234
311.69	0.20291
311.88	0.20174
312.06	0.20487
312.25	0.21563
312.44	0.20135
312.63	0.21272
312.81	0.20575
313.00	0.21305
313.19	0.21093
313.38	0.21104
313.56	0.21826
313.75	0.21377
313.94	0.21968
314.13	0.21871
314.31	0.21999
314.50	0.21590
314.69	0.22763
314.88	0.21736
315.06	0.21979
315.25	0.21824
315.44	0.21418
315.63	0.22440
315.81	0.22394
316.00	0.22266
316.19	0.22520
316.38	0.22231
316.56	0.22256
316.75	0.22634
316.94	0.22356
317.13	0.23116
317.31	0.23302
317.50	0.23504
317.69	0.23467
317.88	0.22945
318.06	0.23261
318.25	0.23219
318.44	0.23497
318.63	0.24401
318.81	0.23798
319.00	0.23748
319.19	0.23994
319.38	0.24117
319.56	0.24040
319.75	0.24443
319.94	0.24665
320.13	0.24203
320.31	0.24674
320.50	0.24884
320.69	0.25245
320.88	0.24549
321.06	0.25057
321.25	0.24846
321.44	0.25376
321.63	0.25180
321.81	0.24866
322.00	0.25790
322.19	0.25222
322.38	0.25765
322.56	0.25632
322.75	0.26194
322.94	0.25792
323.13	0.26182
323.31	0.25646
323.50	0.25886
323.69	0.26003
323.88	0.26323
324.06	0.26111
324.25	0.26424
324.44	0.27091
324.63	0.26218
324.81	0.26917
325.00	0.26950
325.19	0.26850
325.38	0.27001
325.56	0.27141
325.75	0.26935
325.94	0.26467
326.13	0.27171
326.31	0.27111
326.50	0.27471
326.69	0.27057
326.88	0.27008
327.06	0.27029
327.25	0.27402
327.44	0.27046
327.63	0.27055
327.81	0.27274
328.00	0.26891
328.19	0.27016
328.38	0.26829
328.56	0.26470
328.75	0.26316
328.94	0.26605
329.13	0.25956
329.31	0.25983
329.50	0.26691
329.69	0.26212
329.88	0.26372
330.06	0.25897
330.25	0.26056
330.44	0.25644
330.63	0.25367
330.81	0.25602
331.00	0.25474
331.19	0.25553
331.38	0.26037
331.56	0.24887
331.75	0.26141
331.94	0.25401
332.13	0.25163
332.31	0.24936
332.50	0.25174
332.69	0.24533
332.88	0.24841
333.06	0.24132
333.25	0.24871
333.44	0.24760
333.63	0.23967
333.81	0.24425
334.00	0.24813
334.19	0.24294
334.38	0.24267
334.56	0.23368
334.75	0.24224
334.94	0.23634
335.13	0.23916
335.31	0.24163
335.50	0.23154
335.69	0.23509
335.88	0.23795
336.06	0.23241
336.25	0.23556
336.44	0.23039
336.63	0.23389
336.81	0.22270
337.00	0.23133
337.19	0.22752
337.38	0.23241
337.56	0.23101
337.75	0.22810
337.94	0.22445
338.13	0.22598
338.31	0.22140
338.50	0.22609
338.69	0.22200
338.88	0.22946
339.06	0.22445
339.25	0.22718
339.44	0.22363
339.63	0.22505
339.81	0.22582
340.00	0.21775
340.19	0.21819
340.38	0.22591
340.56	0.21798
340.75	0.21935
340.94	0.22356
341.13	0.21852
341.31	0.21716
341.50	0.22008
341.69	0.21552
341.88	0.22030
342.06	0.22377
342.25	0.22437
342.44	0.21524
342.63	0.21800
342.81	0.21412
343.00	0.22246
343.19	0.21770
343.38	0.21781
343.56	0.21605
343.75	0.21490
343.94	0.21805
344.13	0.21772
344.31	0.21262
344.50	0.21547
344.69	0.21696
344.88	0.21533
345.06	0.21622
345.25	0.21928
345.44	0.21658
345.63	0.22068
345.81	0.21691
346.00	0.21915
346.19	0.22099
346.38	0.22250
346.56	0.21658
346.75	0.21493
346.94	0.22200
347.13	0.21754
347.31	0.21533
347.50	0.22201
347.69	0.22143
347.88	0.21901
348.06	0.22273
348.25	0.21977
348.44	0.21760
348.63	0.21870
348.81	0.21929
349.00	0.22220
349.19	0.22203
349.38	0.22044
349.56	0.22234
349.75	0.22195
349.94	0.21817
350.13	0.22260
350.31	0.22134
350.50	0.22480
350.69	0.22314
350.88	0.21791
351.06	0.22347
351.25	0.22629
351.44	0.21942
351.63	0.22722
351.81	0.22093
352.00	0.22150
352.19	0.22311
352.38	0.22710
352.56	0.22539
352.75	0.22424
352.94	0.22382
353.13	0.22870
353.31	0.22611
353.50	0.22988
353.69	0.22511
353.88	0.22514
354.06	0.22780
354.25	0.23109
354.44	0.22882
354.63	0.23179
354.81	0.23137
355.00	0.23152
355.19	0.23330
355.38	0.23279
355.56	0.23688
355.75	0.23616
355.94	0.23572
356.13	0.23591
356.31	0.23415
356.50	0.23844
356.69	0.24070
356.88	0.24314
357.06	0.23818
357.25	0.23833
357.44	0.24253
357.63	0.24019
357.81	0.23953
358.00	0.24106
358.19	0.23924
358.38	0.24308
358.56	0.24152
358.75	0.24238
358.94	0.24580
359.13	0.24404
359.31	0.25056
359.50	0.24265
359.69	0.24707
359.88	0.24659
360.06	0.24819
360.25	0.24633
360.44	0.25052
360.63	0.24564
360.81	0.24873
361.00	0.24780
361.19	0.25043
361.38	0.24770
361.56	0.25187
361.75	0.24954
361.94	0.24799
362.13	0.25302
362.31	0.25127
362.50	0.24838
362.69	0.24772
362.88	0.25064
363.06	0.24819
363.25	0.24903
363.44	0.24938
363.63	0.24691
363.81	0.24904
364.00	0.24902
364.19	0.24761
364.38	0.24719
364.56	0.24633
364.75	0.24770
364.94	0.24506
365.13	0.24136
365.31	0.24264
365.50	0.24490
365.69	0.24193
365.88	0.24377
366.06	0.24016
366.25	0.23833
366.44	0.23574
366.63	0.23555
366.81	0.23481
367.00	0.23879
367.19	0.23562
367.38	0.22974
367.56	0.23035
367.75	0.23227
367.94	0.23125
368.13	0.22810
368.31	0.22617
368.50	0.22480
368.69	0.22359
368.88	0.22130
369.06	0.22037
369.25	0.21952
369.44	0.22082
369.63	0.21510
369.81	0.21675
370.00	0.21401
370.19	0.21318
370.38	0.21373
370.56	0.20882
370.75	0.20536
370.94	0.20680
371.13	0.20545
371.31	0.20785
371.50	0.20375
371.69	0.20323
371.88	0.20276
372.06	0.20001
372.25	0.19761
372.44	0.19724
372.63	0.19821
372.81	0.19586
373.00	0.19595
373.19	0.19539
373.38	0.19607
373.56	0.19281
373.75	0.19068
373.94	0.18818
374.13	0.19084
374.31	0.18562
374.50	0.18701
374.69	0.18625
374.88	0.18297
375.06	0.18248
375.25	0.18087
375.44	0.18075
375.63	0.17831
375.81	0.17663
376.00	0.17620
376.19	0.17687
376.38	0.17524
376.56	0.17495
376.75	0.17410
376.94	0.17080
377.13	0.17027
377.31	0.17155
377.50	0.16912
377.69	0.16598
377.88	0.16620
378.06	0.16558
378.25	0.16586
378.44	0.16217
378.63	0.16295
378.81	0.16186
379.00	0.16228
379.19	0.16029
379.38	0.16048
379.56	0.15850
379.75	0.16232
379.94	0.15774
380.13	0.15649
380.31	0.15745
380.50	0.15398
380.69	0.15687
380.88	0.15677
381.06	0.15583
381.25	0.15444
381.44	0.15159
381.63	0.15110
381.81	0.15431
382.00	0.15182
382.19	0.15089
382.38	0.15254
382.56	0.15451
382.75	0.14838
382.94	0.15060
383.13	0.14996
383.31	0.14949
383.50	0.14579
383.69	0.14855
383.88	0.14786
384.06	0.14768
384.25	0.14851
384.44	0.14681
384.63	0.14707
384.81	0.14571
385.00	0.14626
385.19	0.14804
385.38	0.14634
385.56	0.14623
385.75	0.14323
385.94	0.14607
386.13	0.14591
386.31	0.14354
386.50	0.14620
386.69	0.14612
386.88	0.14493
387.06	0.14301
387.25	0.14312
387.44	0.14301
387.63	0.14230
387.81	0.14160
388.00	0.14031
388.19	0.14207
388.38	0.14223
388.56	0.14416
388.75	0.14529
388.94	0.14250
389.13	0.14186
389.31	0.14197
389.50	0.14242
389.69	0.13858
389.88	0.13939
390.06	0.13977
390.25	0.13838
390.44	0.13997
390.63	0.13985
390.81	0.13913
391.00	0.13837
391.19	0.13821
391.38	0.13705
391.56	0.13931
391.75	0.13880
391.94	0.13522
392.13	0.13947
392.31	0.13875
392.50	0.13839
392.69	0.13342
392.88	0.13814
393.06	0.13737
393.25	0.13611
393.44	0.13888
393.63	0.13707
393.81	0.13399
394.00	0.13718
394.19	0.13652
394.38	0.13657
394.56	0.13739
394.75	0.13623
394.94	0.13185
395.13	0.13447
395.31	0.13394
395.50	0.13503
395.69	0.13631
395.88	0.13533
396.06	0.13454
396.25	0.13445
396.44	0.13364
396.63	0.13324
396.81	0.13411
397.00	0.13605
397.19	0.13459
397.38	0.13381
397.56	0.13239
397.75	0.13222
397.94	0.13129
398.13	0.13201
398.31	0.13076
398.50	0.13410
398.69	0.13206
398.88	0.13278
399.06	0.13546
399.25	0.13267
399.44	0.13053
399.63	0.13059
399.81	0.13329
400.00	0.13277
400.19	0.13284
400.38	0.13069
400.56	0.13219
400.75	0.13110
400.94	0.12784
401.13	0.12889
401.31	0.12784
401.50	0.13078
401.69	0.12964
401.88	0.12682
402.06	0.13075
402.25	0.13013
402.44	0.12801
402.63	0.12714
402.81	0.12984
403.00	0.12928
403.19	0.12950
403.38	0.12830
403.56	0.13002
403.75	0.13050
403.94	0.12898
404.13	0.12847
404.31	0.12918
404.50	0.12814
404.69	0.12663
404.88	0.12723
405.06	0.12860
405.25	0.12675
405.44	0.12580
405.63	0.12617
405.81	0.12607
406.00	0.12724
406.19	0.12386
406.38	0.12574
406.56	0.12367
406.75	0.12518
406.94	0.12690
407.13	0.12771
407.31	0.12539
407.50	0.12437
407.69	0.12600
407.88	0.12640
408.06	0.12670
408.25	0.12139
408.44	0.12483
408.63	0.12532
408.81	0.12647
409.00	0.12460
409.19	0.12585
409.38	0.12472
409.56	0.12228
409.75	0.12206
409.94	0.12079
410.13	0.12184
410.31	0.12290
410.50	0.12362
410.69	0.12155
410.88	0.12307
411.06	0.12361
411.25	0.11867
411.44	0.12241
411.63	0.12283
411.81	0.12102
412.00	0.12141
412.19	0.12216
412.38	0.12163
412.56	0.12159
412.75	0.12042
412.94	0.11880
413.13	0.11967
413.31	0.12132
413.50	0.12195
413.69	0.11785
413.88	0.11983
414.06	0.12186
414.25	0.11760
414.44	0.11753
414.63	0.11979
414.81	0.11788
415.00	0.11780
415.19	0.11746
415.38	0.11641
415.56	0.11806
415.75	0.11783
415.94	0.11804
416.13	0.11905
416.31	0.11917
416.50	0.11794
416.69	0.11608
416.88	0.11745
417.06	0.11720
417.25	0.11613
417.44	0.11390
417.63	0.11620
417.81	0.11616
418.00	0.11644
418.19	0.11554
418.38	0.11563
418.56	0.11404
418.75	0.11535
418.94	0.11438
419.13	0.11294
419.31	0.11290
419.50	0.11535
419.69	0.11372
419.88	0.11457
420.06	0.11146
420.25	0.11269
420.44	0.11399
420.63	0.10996
420.81	0.11215
421.00	0.11201
421.19	0.11045
421.38	0.11088
421.56	0.11172
421.75	0.11122
421.94	0.11285
422.13	0.10933
422.31	0.10861
422.50	0.10902
422.69	0.10943
422.88	0.11034
423.06	0.10850
423.25	0.10982
423.44	0.10805
423.63	0.10946
423.81	0.10836
424.00	0.10821
424.19	0.10653
424.38	0.10647
424.56	0.10503
424.75	0.10700
424.94	0.10760
425.13	0.10513
425.31	0.10504
425.50	0.10429
425.69	0.10526
425.88	0.10430
426.06	0.10410
426.25	0.10204
426.44	0.10319
426.63	0.10190
426.81	0.10400
427.00	0.10160
427.19	0.10189
427.38	0.10292
427.56	0.10076
427.75	0.10079
427.94	0.10038
428.13	0.10046
428.31	0.10036
428.50	0.10139
428.69	0.097954
428.88	0.098826
429.06	0.096814
429.25	0.10038
429.44	0.099291
429.63	0.097820
429.81	0.097584
430.00	0.096852
430.19	0.095960
430.38	0.094369
430.56	0.095553
430.75	0.095508
430.94	0.094146
431.13	0.093050
431.31	0.094489
431.50	0.093159
431.69	0.091720
431.88	0.092114
432.06	0.091191
432.25	0.092044
432.44	0.091382
432.63	0.090631
432.81	0.087294
433.00	0.088498
433.19	0.090382
433.38	0.087676
433.56	0.089727
433.75	0.086562
433.94	0.087351
434.13	0.087288
434.31	0.086097
434.50	0.083747
434.69	0.082862
434.88	0.084594
435.06	0.083766
435.25	0.082888
435.44	0.082295
435.63	0.084269
435.81	0.081245
436.00	0.081850
436.19	0.080576
436.38	0.079869
436.56	0.078991
436.75	0.081022
436.94	0.080525
437.13	0.079341
437.31	0.079545
437.50	0.077265
437.69	0.077061
437.88	0.078411
438.06	0.077940
438.25	0.077704
438.44	0.077119
438.63	0.075915
438.81	0.077762
439.00	0.076864
439.19	0.078488
439.38	0.073941
439.56	0.075297
439.75	0.074743
439.94	0.074743
440.13	0.073846
440.31	0.074317
440.50	0.071808
440.69	0.075055
440.88	0.076456
441.06	0.073132
441.25	0.072897
441.44	0.072273
441.63	0.073362
441.81	0.071942
442.00	0.071566
442.19	0.070999
442.38	0.072547
442.56	0.069668
442.75	0.071916
442.94	0.071872
443.13	0.069917
443.31	0.068344
443.50	0.070050
443.69	0.069923
443.88	0.069885
444.06	0.068478
444.25	0.067542
444.44	0.069528
444.63	0.068318
444.81	0.065956
445.00	0.067586
445.19	0.067924
445.38	0.064447
445.56	0.065880
445.75	0.065950
445.94	0.065701
446.13	0.065313
446.31	0.065173
446.50	0.064090
446.69	0.064256
446.88	0.064912
447.06	0.063734
447.25	0.061359
447.44	0.063651
447.63	0.063422
447.81	0.062288
448.00	0.061664
448.19	0.060645
448.38	0.060028
448.56	0.060162
448.75	0.058786
448.94	0.058863
449.13	0.059327
449.31	0.058621
449.50	0.057334
449.69	0.056538
449.88	0.055787
450.06	0.055927
450.25	0.054507
450.44	0.056131
450.63	0.055704
450.81	0.055303
451.00	0.054431
451.19	0.054571
451.38	0.052953
451.56	0.052317
451.75	0.052355
451.94	0.050948
452.13	0.051833
452.31	0.049789
452.50	0.051871
452.69	0.050031
452.88	0.050349
453.06	0.048687
453.25	0.047477
453.44	0.048190
453.63	0.048165
453.81	0.047318
454.00	0.046834
454.19	0.045713
454.38	0.045611
454.56	0.045376
454.75	0.045140
454.94	0.044211
455.13	0.043300
455.31	0.044249
455.50	0.042192
455.69	0.042504
455.88	0.041555
456.06	0.043039
456.25	0.041625
456.44	0.040829
456.63	0.039588
456.81	0.040740
457.00	0.037907
457.19	0.039779
457.38	0.038047
457.56	0.038868
457.75	0.038384
457.94	0.037830
458.13	0.036557
458.31	0.036213
458.50	0.035742
458.69	0.034557
458.88	0.033035
459.06	0.034958
459.25	0.034334
459.44	0.034054
459.63	0.032851
459.81	0.032048
460.00	0.031966
460.19	0.033010
460.38	0.030864
460.56	0.030456
460.75	0.030278
460.94	0.031717
461.13	0.029985
461.31	0.029126
461.50	0.030476
461.69	0.029705
461.88	0.029673
462.06	0.027699
462.25	0.028056
462.44	0.027935
462.63	0.027355
462.81	0.028100
463.00	0.025636
463.19	0.025280
463.38	0.026871
463.56	0.025853
463.75	0.025980
463.94	0.025330
464.13	0.025604
464.31	0.024025
464.50	0.024006
464.69	0.025490
464.88	0.024636
465.06	0.024445
465.25	0.022962
465.44	0.022007
465.63	0.024439
465.81	0.024318
466.00	0.020650
466.19	0.023197
466.38	0.020618
466.56	0.021612
466.75	0.018931
466.94	0.021370
467.13	0.020657
467.31	0.020421
467.50	0.021121
467.69	0.019555
467.88	0.020485
468.06	0.018969
468.25	0.020001
468.44	0.018740
468.63	0.017861
468.81	0.019549
469.00	0.018122
469.19	0.018180
469.38	0.018664
469.56	0.017435
469.75	0.016282
469.94	0.018734
470.13	0.016078
470.31	0.017460
470.50	0.016944
470.69	0.015925
470.88	0.016257
471.06	0.016422
471.25	0.016620
471.44	0.016212
471.63	0.016027
471.81	0.015945
472.00	0.015811
472.19	0.015480
472.38	0.016811
472.56	0.014206
472.75	0.014945
472.94	0.014365
473.13	0.013926
473.31	0.013251
473.50	0.013983
473.69	0.013620
473.88	0.014798
474.06	0.013646
474.25	0.014582
474.44	0.015072
474.63	0.013614
474.81	0.012239
475.00	0.013576
475.19	0.014053
475.38	0.013098
475.56	0.013468
475.75	0.013015
475.94	0.012888
476.13	0.012697
476.31	0.013741
476.50	0.013818
476.69	0.012277
476.88	0.012939
477.06	0.013442
477.25	0.013028
477.44	0.012761
477.63	0.011755
477.81	0.011086
478.00	0.011595
478.19	0.011233
478.38	0.012099
478.56	0.011812
478.75	0.012487
478.94	0.012130
479.13	0.010131
479.31	0.010405
479.50	0.010105
479.69	0.0096788
479.88	0.011901
480.06	0.011958
480.25	0.012200
480.44	0.012277
480.63	0.010876
480.81	0.010507
481.00	0.011283
481.19	0.0099908
481.38	0.0099781
481.56	0.011398
481.75	0.010456
481.94	0.010698
482.13	0.010488
482.31	0.010424
482.50	0.0098890
482.69	0.010978
482.88	0.010335
483.06	0.0091630
483.25	0.010086
483.44	0.0088128
483.63	0.0083352
483.81	0.0099272
484.00	0.0097234
484.19	0.010468
484.38	0.0097361
484.56	0.010742
484.75	0.0095706
484.94	0.0093095
485.13	0.0091503
485.31	0.0096916
485.50	0.0082779
485.69	0.0085199
485.88	0.0098062
486.06	0.0095960
486.25	0.0088701
486.44	0.0086345
486.63	0.0095960
486.81	0.0093795
487.00	0.0095260
487.19	0.010647
487.38	0.0088574
487.56	0.0076093
487.75	0.0094432
487.94	0.0093413
488.13	0.0089020
488.31	0.0079468
488.50	0.010188
488.69	0.0098062
488.88	0.0081506
489.06	0.0097425
489.25	0.0094432
489.44	0.0098444
489.63	0.0080678
489.81	0.0095897
490.00	0.0091821
490.19	0.0092840
490.38	0.0078258
490.56	0.0084562
490.75	0.010150
490.94	0.0087937
491.13	0.0080678
491.31	0.0086282
491.50	0.0091248
491.69	0.0085645
491.88	0.0081379
492.06	0.0073101
492.25	0.0084053
492.44	0.0090930
492.63	0.0088065
492.81	0.0085390
493.00	0.0083798
493.19	0.0093986
493.38	0.0080296
493.56	0.0089274
493.75	0.0099654
493.94	0.0089656
494.13	0.0085199
494.31	0.0085518
494.50	0.0096916
494.69	0.0096470
494.88	0.0095069
495.06	0.0084944
495.25	0.0089147
495.44	0.0077685
495.63	0.0092522
495.81	0.010125
496.00	0.0086791
496.19	0.0092840
496.38	0.0098507
496.56	0.0084371
496.75	0.010010
496.94	0.0085709
497.13	0.0099845
497.31	0.0093923
497.50	0.0082015
497.69	0.0096215
497.88	0.0095960
498.06	0.0082079
498.25	0.0078704
498.44	0.0089147
498.63	0.010042
498.81	0.0096597
499.00	0.0090548
499.19	0.0094177
499.38	0.0099526
499.56	0.0097616
499.75	0.0091057
499.94	0.0097552
500.13	0.0081570
500.31	0.010659
500.50	0.0094114
500.69	0.0095706
500.88	0.0084562
501.06	0.0095069
501.25	0.011118
501.44	0.010704
501.63	0.0095833
501.81	0.010316
502.00	0.0094623
502.19	0.010831
502.38	0.010131
502.56	0.0093031
502.75	0.010201
502.94	0.0090930
503.13	0.0096088
503.31	0.0092395
503.50	0.010182
503.69	0.010430
503.88	0.011207
504.06	0.010233
504.25	0.0090102
504.44	0.0097234
504.63	0.010023
504.81	0.0084817
505.00	0.0095960
505.19	0.0094050
505.38	0.0093923
505.56	0.011029
505.75	0.0083544
505.94	0.0090930
506.13	0.0082652
506.31	0.0083416
506.50	0.0085326
506.69	0.0099272
506.88	0.010074
507.06	0.0087555
507.25	0.010449
507.44	0.0093604
507.63	0.0077431
507.81	0.0093031
508.00	0.010004
508.19	0.0082779
508.38	0.0087746
508.56	0.0078704
508.75	0.0098699
508.94	0.0099081
509.13	0.0080487
509.31	0.0078131
509.50	0.0099208
509.69	0.0093986
509.88	0.0086855
510.06	0.0087491
510.25	0.0083671
510.44	0.0088319
510.63	0.0089465
510.81	0.010010
511.00	0.0087173
511.19	0.0081442
511.38	0.0097616
511.56	0.010443
511.75	0.0085135
511.94	0.0082843
512.12	0.0072782
512.31	0.0093413
512.50	0.0076985
512.69	0.0081633
512.88	0.0083735
513.06	0.0090039
513.25	0.0083735
513.44	0.0080996
513.62	0.0081633
513.81	0.0068771
514.00	0.0070299
514.19	0.0065141
514.37	0.0075711
514.56	0.0088765
514.75	0.0060238
514.94	0.0085072
515.12	0.0093477
515.31	0.0078959
515.50	0.0066287
515.69	0.0073164
515.87	0.0076093
516.06	0.0066160
516.25	0.0080487
516.44	0.0074247
516.62	0.0081251
516.81	0.0063613
517.00	0.0081697
517.19	0.0060556
517.37	0.0070044
517.56	0.0068707
517.75	0.0073483
517.94	0.0071445
518.13	0.0069917
518.31	0.0057882
518.50	0.0076985
518.69	0.0071827
518.88	0.0076093
519.06	0.0080105
519.25	0.0062785
519.44	0.0054889
519.62	0.0079787
519.81	0.0063040
520.00	0.0077685
520.19	0.0060875
520.38	0.0062467
520.56	0.0057882
520.75	0.0063804
520.94	0.0064186
521.12	0.0051451
521.31	0.0067497
521.50	0.0040371
521.69	0.0060938
521.87	0.0070745
522.06	0.0064823
522.25	0.0059601
522.44	0.0068197
522.63	0.0067497
522.81	0.0067879
523.00	0.0053679
523.19	0.0059601
523.37	0.0051069
523.56	0.0060875
523.75	0.0041772
523.94	0.0066542
524.12	0.0066287
524.31	0.0052278
524.50	0.0064441
524.69	0.0066287
524.87	0.0047948
525.06	0.0052597
525.25	0.0057882
525.44	0.0057245
