Wavelength (nm)	S10 abs N
300.00	0.34530
300.19	0.34847
300.38	0.35044
300.56	0.35417
300.75	0.35632
300.94	0.35873
301.13	0.36056
301.31	0.36308
301.50	0.36621
301.69	0.36727
301.88	0.37029
302.06	0.37268
302.25	0.37706
302.44	0.37999
302.63	0.38184
302.81	0.38409
303.00	0.38716
303.19	0.38966
303.38	0.39216
303.56	0.39596
303.75	0.39804
303.94	0.40075
304.13	0.40355
304.31	0.40662
304.50	0.40958
304.69	0.41154
304.88	0.41449
305.06	0.41720
305.25	0.41972
305.44	0.42438
305.63	0.42468
305.81	0.42877
306.00	0.43172
306.19	0.43586
306.38	0.43931
306.56	0.44237
306.75	0.44564
306.94	0.44749
307.13	0.45131
307.31	0.45367
307.50	0.45720
307.69	0.46034
307.88	0.46244
308.06	0.46626
308.25	0.46993
308.44	0.47189
308.63	0.47566
308.81	0.47943
309.00	0.48144
309.19	0.48573
309.38	0.48965
309.56	0.49362
309.75	0.49669
309.94	0.48905
310.13	0.48835
310.31	0.49222
310.50	0.48948
310.69	0.49929
310.88	0.50470
311.06	0.50524
311.25	0.51116
311.44	0.51363
311.63	0.53051
311.81	0.51939
312.00	0.53057
312.19	0.53052
312.38	0.53636
312.56	0.53135
312.75	0.54231
312.94	0.55711
313.13	0.55342
313.31	0.57081
313.50	0.56092
313.69	0.55832
313.88	0.57381
314.06	0.58024
314.25	0.58113
314.44	0.58775
314.63	0.59950
314.81	0.60325
315.00	0.59959
315.19	0.60470
315.38	0.61522
315.56	0.61608
315.75	0.61454
315.94	0.62425
316.13	0.63256
316.31	0.62940
316.50	0.63862
316.69	0.64494
316.88	0.64458
317.06	0.64190
317.25	0.65854
317.44	0.66258
317.63	0.65046
317.81	0.65688
318.00	0.65900
318.19	0.67299
318.38	0.68439
318.56	0.67799
318.75	0.67144
318.94	0.68372
319.13	0.67631
319.31	0.68142
319.50	0.68818
319.69	0.68917
319.88	0.70894
320.06	0.70691
320.25	0.71767
320.44	0.71459
320.63	0.72988
320.81	0.71793
321.00	0.72250
321.19	0.72316
321.38	0.74557
321.56	0.74683
321.75	0.73316
321.94	0.75956
322.13	0.73777
322.31	0.74049
322.50	0.74715
322.69	0.75986
322.88	0.75802
323.06	0.75260
323.25	0.76716
323.44	0.76823
323.63	0.76924
323.81	0.78012
324.00	0.76088
324.19	0.77610
324.38	0.78663
324.56	0.78844
324.75	0.79210
324.94	0.78991
325.13	0.79621
325.31	0.79836
325.50	0.80577
325.69	0.79675
325.88	0.80403
326.06	0.80427
326.25	0.80421
326.44	0.81331
326.63	0.82666
326.81	0.81834
327.00	0.82042
327.19	0.83308
327.38	0.83405
327.56	0.85791
327.75	0.84225
327.94	0.84437
328.13	0.84923
328.31	0.85487
328.50	0.85305
328.69	0.86414
328.88	0.85743
329.06	0.85795
329.25	0.86251
329.44	0.87324
329.63	0.86646
329.81	0.87163
330.00	0.89907
330.19	0.89132
330.38	0.89109
330.56	0.89576
330.75	0.89807
330.94	0.92254
331.13	0.89853
331.31	0.91042
331.50	0.90933
331.69	0.91750
331.88	0.92192
332.06	0.91630
332.25	0.93151
332.44	0.94115
332.63	0.92746
332.81	0.94668
333.00	0.94266
333.19	0.96024
333.38	0.96636
333.56	0.95372
333.75	0.94807
333.94	0.95486
334.13	0.94811
334.31	0.96234
334.50	0.97110
334.69	0.96237
334.88	0.96729
335.06	0.98842
335.25	0.97072
335.44	0.99453
335.63	0.97570
335.81	0.98390
336.00	0.98093
336.19	0.99843
336.38	0.99828
336.56	0.99668
336.75	0.98996
336.94	1.0092
337.13	1.0081
337.31	1.0031
337.50	1.0200
337.69	1.0163
337.88	1.0155
338.06	1.0170
338.25	1.0043
338.44	1.0123
338.63	1.0172
338.81	1.0197
339.00	1.0305
339.19	1.0204
339.38	1.0324
339.56	1.0162
339.75	1.0266
339.94	1.0144
340.13	1.0298
340.31	1.0141
340.50	1.0125
340.69	1.0115
340.88	1.0042
341.06	1.0129
341.25	1.0140
341.44	1.0003
341.63	0.99641
341.81	0.99753
342.00	0.99353
342.19	0.99714
342.38	0.98369
342.56	0.98624
342.75	0.98309
342.94	0.98151
343.13	0.95559
343.31	0.97423
343.50	0.94779
343.69	0.94942
343.88	0.95797
344.06	0.94073
344.25	0.92893
344.44	0.92510
344.63	0.92665
344.81	0.91193
345.00	0.90682
345.19	0.90665
345.38	0.90327
345.56	0.89056
345.75	0.87522
345.94	0.87369
346.13	0.86613
346.31	0.84744
346.50	0.85358
346.69	0.83872
346.88	0.83642
347.06	0.80895
347.25	0.82041
347.44	0.81017
347.63	0.80627
347.81	0.78627
348.00	0.78314
348.19	0.77396
348.38	0.75783
348.56	0.75966
348.75	0.74091
348.94	0.74341
349.13	0.72505
349.31	0.71226
349.50	0.71590
349.69	0.71050
349.88	0.69823
350.06	0.68066
350.25	0.68238
350.44	0.67359
350.63	0.66287
350.81	0.65963
351.00	0.64383
351.19	0.63566
351.38	0.63259
351.56	0.62176
351.75	0.61837
351.94	0.60915
352.13	0.59746
352.31	0.60132
352.50	0.58324
352.69	0.58095
352.88	0.57177
353.06	0.57064
353.25	0.55337
353.44	0.54313
353.63	0.53719
353.81	0.53585
354.00	0.52147
354.19	0.51720
354.38	0.50686
354.56	0.50045
354.75	0.48755
354.94	0.48816
355.13	0.48097
355.31	0.47695
355.50	0.46560
355.69	0.46528
355.88	0.45878
356.06	0.44851
356.25	0.44680
356.44	0.44246
356.63	0.43769
356.81	0.43133
357.00	0.42331
357.19	0.42352
357.38	0.41550
357.56	0.41072
357.75	0.40841
357.94	0.40488
358.13	0.40123
358.31	0.39062
358.50	0.38677
358.69	0.38528
358.88	0.38127
359.06	0.37719
359.25	0.37761
359.44	0.37091
359.63	0.36686
359.81	0.36728
360.00	0.35887
360.19	0.35712
360.38	0.35320
360.56	0.35276
360.75	0.34740
360.94	0.34334
361.13	0.33997
361.31	0.33408
361.50	0.33188
361.69	0.33365
361.88	0.32682
362.06	0.32514
362.25	0.32484
362.44	0.32245
362.63	0.31669
362.81	0.31810
363.00	0.31046
363.19	0.30950
363.38	0.30682
363.56	0.30531
363.75	0.30180
363.94	0.29538
364.13	0.29647
364.31	0.29116
364.50	0.29164
364.69	0.28895
364.88	0.28442
365.06	0.28488
365.25	0.28327
365.44	0.28082
365.63	0.27870
365.81	0.27765
366.00	0.27466
366.19	0.27136
366.38	0.27062
366.56	0.26670
366.75	0.26912
366.94	0.26680
367.13	0.26297
367.31	0.26496
367.50	0.25948
367.69	0.26185
367.88	0.25479
368.06	0.25582
368.25	0.25336
368.44	0.25252
368.63	0.24829
368.81	0.25049
369.00	0.24706
369.19	0.24586
369.38	0.24264
369.56	0.24215
369.75	0.24128
369.94	0.23998
370.13	0.23707
370.31	0.23793
370.50	0.23540
370.69	0.23381
370.88	0.23233
371.06	0.23143
371.25	0.22836
371.44	0.22802
371.63	0.22937
371.81	0.22325
372.00	0.22370
372.19	0.22454
372.38	0.22377
372.56	0.22279
372.75	0.22261
372.94	0.22092
373.13	0.21863
373.31	0.22033
373.50	0.22101
373.69	0.21753
373.88	0.21861
374.06	0.21767
374.25	0.21695
374.44	0.21600
374.63	0.21417
374.81	0.21281
375.00	0.21570
375.19	0.21155
375.38	0.20862
375.56	0.20830
375.75	0.20907
375.94	0.20715
376.13	0.20820
376.31	0.20613
376.50	0.20610
376.69	0.20446
376.88	0.20335
377.06	0.20416
377.25	0.20251
377.44	0.20134
377.63	0.19883
377.81	0.19847
378.00	0.19924
378.19	0.20181
378.38	0.19686
378.56	0.19416
378.75	0.19879
378.94	0.19428
379.13	0.19593
379.31	0.19192
379.50	0.19264
379.69	0.19349
379.88	0.19449
380.06	0.19282
380.25	0.19182
380.44	0.19076
380.63	0.18856
380.81	0.18899
381.00	0.19142
381.19	0.18669
381.38	0.19012
381.56	0.18811
381.75	0.18352
381.94	0.18520
382.13	0.18462
382.31	0.18498
382.50	0.18499
382.69	0.18503
382.88	0.18420
383.06	0.18404
383.25	0.18163
383.44	0.18189
383.63	0.17662
383.81	0.18305
384.00	0.18165
384.19	0.17990
384.38	0.17977
384.56	0.18205
384.75	0.17767
384.94	0.17990
385.13	0.17506
385.31	0.17634
385.50	0.17580
385.69	0.17411
385.88	0.17205
386.06	0.17474
386.25	0.17385
386.44	0.17570
386.63	0.17383
386.81	0.17384
387.00	0.17110
387.19	0.17201
387.38	0.16926
387.56	0.17024
387.75	0.17222
387.94	0.17017
388.13	0.16992
388.31	0.16757
388.50	0.16842
388.69	0.16814
388.88	0.16674
389.06	0.16717
389.25	0.16740
389.44	0.16403
389.63	0.16530
389.81	0.16782
390.00	0.16679
390.19	0.16554
390.38	0.16238
390.56	0.16338
390.75	0.16200
390.94	0.16055
391.13	0.15924
391.31	0.16159
391.50	0.15953
391.69	0.16045
391.88	0.16009
392.06	0.16048
392.25	0.15781
392.44	0.15770
392.63	0.15611
392.81	0.15621
393.00	0.15829
393.19	0.15714
393.38	0.15503
393.56	0.15528
393.75	0.15462
393.94	0.15300
394.13	0.15275
394.31	0.15376
394.50	0.15239
394.69	0.15045
394.88	0.15035
395.06	0.14979
395.25	0.15153
395.44	0.14892
395.63	0.14975
395.81	0.14934
396.00	0.14771
396.19	0.15013
396.38	0.14779
396.56	0.14708
396.75	0.14756
396.94	0.14801
397.13	0.14421
397.31	0.14593
397.50	0.14672
397.69	0.14366
397.88	0.14517
398.06	0.14385
398.25	0.14469
398.44	0.14232
398.63	0.14333
398.81	0.14101
399.00	0.14331
399.19	0.14141
399.38	0.14080
399.56	0.14243
399.75	0.13832
399.94	0.14015
400.13	0.13861
400.31	0.14005
400.50	0.14068
400.69	0.13713
400.88	0.13768
401.06	0.13802
401.25	0.13600
401.44	0.13486
401.63	0.13492
401.81	0.13492
402.00	0.13649
402.19	0.13410
402.38	0.13316
402.56	0.13196
402.75	0.13204
402.94	0.13333
403.13	0.13354
403.31	0.13128
403.50	0.13122
403.69	0.13366
403.88	0.13251
404.06	0.12879
404.25	0.13003
404.44	0.12968
404.63	0.12921
404.81	0.12843
405.00	0.12907
405.19	0.12943
405.38	0.12766
405.56	0.12457
405.75	0.12545
405.94	0.12786
406.13	0.12455
406.31	0.12486
406.50	0.12349
406.69	0.12492
406.88	0.12396
407.06	0.12419
407.25	0.12587
407.44	0.12080
407.63	0.12438
407.81	0.12252
408.00	0.12194
408.19	0.12078
408.38	0.12014
408.56	0.12028
408.75	0.11949
408.94	0.11737
409.13	0.11926
409.31	0.11723
409.50	0.11882
409.69	0.11755
409.88	0.11829
410.06	0.11742
410.25	0.11652
410.44	0.11601
410.63	0.11542
410.81	0.11537
411.00	0.11550
411.19	0.11535
411.38	0.11340
411.56	0.11221
411.75	0.11198
411.94	0.11120
412.13	0.11294
412.31	0.11172
412.50	0.11163
412.69	0.11119
412.88	0.11089
413.06	0.11191
413.25	0.10781
413.44	0.10962
413.63	0.10965
413.81	0.11018
414.00	0.10938
414.19	0.11036
414.38	0.10925
414.56	0.10648
414.75	0.10514
414.94	0.10672
415.13	0.10653
415.31	0.10576
415.50	0.10532
415.69	0.10427
415.88	0.10609
416.06	0.10227
416.25	0.10372
416.44	0.10388
416.63	0.10225
416.81	0.10418
417.00	0.10200
417.19	0.10152
417.38	0.10158
417.56	0.099606
417.75	0.10073
417.94	0.10039
418.13	0.099258
418.31	0.099464
418.50	0.097399
418.69	0.098650
418.88	0.096160
419.06	0.096254
419.25	0.095800
419.44	0.094962
419.63	0.095511
419.81	0.097375
420.00	0.094071
420.19	0.093428
420.38	0.092785
420.56	0.094207
420.75	0.092998
420.94	0.092897
421.13	0.093375
421.31	0.092059
421.50	0.091068
421.69	0.092201
421.88	0.093021
422.06	0.089086
422.25	0.090006
422.44	0.090596
422.63	0.087788
422.81	0.088537
423.00	0.086708
423.19	0.086820
423.38	0.088567
423.56	0.087180
423.75	0.084378
423.94	0.087876
424.13	0.086856
424.31	0.085292
424.50	0.084855
424.69	0.084673
424.88	0.085440
425.06	0.083717
425.25	0.084071
425.44	0.082324
425.63	0.082460
425.81	0.082720
426.00	0.082118
426.19	0.083923
426.38	0.081634
426.56	0.081616
426.75	0.078454
426.94	0.081758
427.13	0.079421
427.31	0.078159
427.50	0.078560
427.69	0.078778
427.88	0.076843
428.06	0.076442
428.25	0.077917
428.44	0.076637
428.63	0.077917
428.81	0.077185
429.00	0.075586
429.19	0.075681
429.38	0.075569
429.56	0.074153
429.75	0.074949
429.94	0.074737
430.13	0.073628
430.31	0.072477
430.50	0.071793
430.69	0.072288
430.88	0.071975
431.06	0.073309
431.25	0.072217
431.44	0.070813
431.63	0.070931
431.81	0.070489
432.00	0.070170
432.19	0.069320
432.38	0.069928
432.56	0.068990
432.75	0.068005
432.94	0.068937
433.13	0.068636
433.31	0.067314
433.50	0.067238
433.69	0.066176
433.88	0.067096
434.06	0.067527
434.25	0.066459
434.44	0.064394
434.63	0.064400
434.81	0.063597
435.00	0.065603
435.19	0.062913
435.38	0.063497
435.56	0.062512
435.75	0.062069
435.94	0.062293
436.13	0.062860
436.31	0.061479
436.50	0.062936
436.69	0.061804
436.88	0.059337
437.06	0.061225
437.25	0.058665
437.44	0.059084
437.63	0.058039
437.81	0.057384
438.00	0.057113
438.19	0.057992
438.38	0.059562
438.56	0.058718
438.75	0.058877
438.94	0.057975
439.13	0.055473
439.31	0.054818
439.50	0.054960
439.69	0.054824
439.88	0.054983
440.06	0.055361
440.25	0.054434
440.44	0.053355
440.63	0.052499
440.81	0.052747
441.00	0.052234
441.19	0.052086
441.38	0.052906
441.56	0.053201
441.75	0.051750
441.94	0.051195
442.13	0.052411
442.31	0.051195
442.50	0.051939
442.69	0.050647
442.88	0.050599
443.06	0.049897
443.25	0.049260
443.44	0.049974
443.63	0.048245
443.81	0.048564
444.00	0.049555
444.19	0.047826
444.38	0.047950
444.56	0.047561
444.75	0.048062
444.94	0.048717
445.13	0.047095
445.31	0.048664
445.50	0.045879
445.69	0.047272
445.88	0.045183
446.06	0.044752
446.25	0.046210
446.44	0.046103
446.63	0.044499
446.81	0.044611
447.00	0.044988
447.19	0.045248
447.38	0.043944
447.56	0.044929
447.75	0.045047
447.94	0.044044
448.13	0.045100
448.31	0.042811
448.50	0.043171
448.69	0.041466
448.88	0.042375
449.06	0.042546
449.25	0.042729
449.44	0.042705
449.63	0.043820
449.81	0.042392
450.00	0.041779
450.19	0.042711
450.38	0.041531
450.56	0.041318
450.75	0.040699
450.94	0.041625
451.13	0.041472
451.31	0.040852
451.50	0.039967
451.69	0.040115
451.88	0.040817
452.06	0.039814
452.25	0.038575
452.44	0.038740
452.63	0.039059
452.81	0.039560
453.00	0.039377
453.19	0.038498
453.38	0.039224
453.56	0.038357
453.75	0.039159
453.94	0.039206
454.13	0.038315
454.31	0.037436
454.50	0.037879
454.69	0.037572
454.88	0.037253
455.06	0.037230
455.25	0.037289
455.44	0.036775
455.63	0.037289
455.81	0.037542
456.00	0.036085
456.19	0.036917
456.38	0.036982
456.56	0.034728
456.75	0.037124
456.94	0.036256
457.13	0.034746
457.31	0.034769
457.50	0.036528
457.69	0.034911
457.88	0.033731
458.06	0.034421
458.25	0.034350
458.44	0.034539
458.63	0.033731
458.81	0.033678
459.00	0.035312
459.19	0.034870
459.38	0.034504
459.56	0.035318
459.75	0.033465
459.94	0.032162
460.13	0.032580
460.31	0.033100
460.50	0.032374
460.69	0.032628
460.88	0.032321
461.06	0.031170
461.25	0.032091
461.44	0.031377
461.63	0.032828
461.81	0.032185
462.00	0.032698
462.19	0.032356
462.38	0.032929
462.56	0.030734
462.75	0.032946
462.94	0.030946
463.13	0.030993
463.31	0.031099
463.50	0.030793
463.69	0.030781
463.88	0.031489
464.06	0.031282
464.25	0.031005
464.44	0.031052
464.63	0.030268
464.81	0.030922
465.00	0.030775
465.19	0.031589
465.38	0.029636
465.56	0.029831
465.75	0.029040
465.94	0.029648
466.13	0.029329
466.31	0.029530
466.50	0.028326
466.69	0.029176
466.88	0.030197
467.06	0.029200
467.25	0.028793
467.44	0.029217
467.63	0.030332
467.81	0.029294
468.00	0.028498
468.19	0.030132
468.38	0.028680
468.56	0.028332
468.75	0.029011
468.94	0.029860
469.13	0.028232
469.31	0.027860
469.50	0.028391
469.69	0.027760
469.88	0.029689
470.06	0.028291
470.25	0.028610
470.44	0.028126
470.63	0.028450
470.81	0.028374
471.00	0.027795
471.19	0.027559
471.38	0.028297
471.56	0.028557
471.75	0.027371
471.94	0.027559
472.13	0.029371
472.31	0.028492
472.50	0.028739
472.69	0.028881
472.88	0.029046
473.06	0.029023
473.25	0.029141
473.44	0.029660
473.63	0.029152
473.81	0.028952
474.00	0.028344
474.19	0.029046
474.38	0.029017
474.56	0.028256
474.75	0.028468
474.94	0.031448
475.13	0.030114
475.31	0.029689
475.50	0.029176
475.69	0.028928
475.88	0.029683
476.06	0.030403
476.25	0.029211
476.44	0.029436
476.63	0.029424
476.81	0.030020
477.00	0.031241
477.19	0.030976
477.38	0.031188
477.56	0.031394
477.75	0.031666
477.94	0.031507
478.13	0.032687
478.31	0.031200
478.50	0.031825
478.69	0.031217
478.88	0.030509
479.06	0.032014
479.25	0.031920
479.44	0.032775
479.63	0.031731
479.81	0.032616
480.00	0.032675
480.19	0.032179
480.38	0.032940
480.56	0.033878
480.75	0.032468
480.94	0.032970
481.13	0.034291
481.31	0.033991
481.50	0.033578
481.69	0.033672
481.88	0.033342
482.06	0.034793
482.25	0.035206
482.44	0.033873
482.63	0.035920
482.81	0.036014
483.00	0.036103
483.19	0.036014
483.38	0.035029
483.56	0.036604
483.75	0.036498
483.94	0.036410
484.13	0.037041
484.31	0.036498
484.50	0.037023
484.69	0.036817
484.88	0.036256
485.06	0.038516
485.25	0.039159
485.44	0.037501
485.63	0.038227
485.81	0.039041
486.00	0.038994
486.19	0.039135
486.38	0.038280
486.56	0.039035
486.75	0.039784
486.94	0.041307
487.13	0.038675
487.31	0.040628
487.50	0.040115
487.69	0.040298
487.88	0.039725
488.06	0.040888
488.25	0.040864
488.44	0.041195
488.63	0.040941
488.81	0.040622
489.00	0.041236
489.19	0.043089
489.38	0.041330
489.56	0.043631
489.75	0.042339
489.94	0.042481
490.13	0.043035
490.31	0.043124
490.50	0.044210
490.69	0.044522
490.88	0.043307
491.06	0.044227
491.25	0.044888
491.44	0.045331
491.63	0.045537
491.81	0.044481
492.00	0.045767
492.19	0.045932
492.38	0.046646
492.56	0.046334
492.75	0.046457
492.94	0.047325
493.13	0.046652
493.31	0.047643
493.50	0.050003
493.69	0.048546
493.88	0.048888
494.06	0.049071
494.25	0.049950
494.44	0.049880
494.63	0.050499
494.81	0.051030
495.00	0.050924
495.19	0.049921
495.38	0.051750
495.56	0.051101
495.75	0.051201
495.94	0.052712
496.13	0.053591
496.31	0.052375
496.50	0.052181
496.69	0.053190
496.88	0.054901
497.06	0.054045
497.25	0.055119
497.44	0.054965
497.63	0.057089
497.81	0.057237
498.00	0.056907
498.19	0.055839
498.38	0.056741
498.56	0.056435
498.75	0.058989
498.94	0.059432
499.13	0.059308
499.31	0.060523
499.50	0.059933
499.69	0.060641
499.88	0.061161
500.06	0.062488
500.25	0.061898
500.44	0.062164
500.63	0.063881
500.81	0.064081
501.00	0.064075
501.19	0.066034
501.38	0.065580
501.56	0.066488
501.75	0.066317
501.94	0.067775
502.13	0.068683
502.31	0.069197
502.50	0.070005
502.69	0.070217
502.88	0.071663
503.06	0.073604
503.25	0.072890
503.44	0.074395
503.63	0.075433
503.81	0.077109
504.00	0.077693
504.19	0.078271
504.38	0.079327
504.56	0.080725
504.75	0.082407
504.94	0.083156
505.13	0.084142
505.31	0.086006
505.50	0.086608
505.69	0.087357
505.88	0.089953
506.06	0.090413
506.25	0.092720
506.44	0.092189
506.63	0.094862
506.81	0.095364
507.00	0.096343
507.19	0.099830
507.38	0.10112
507.56	0.10259
507.75	0.10210
507.94	0.10555
508.13	0.10720
508.31	0.10883
508.50	0.11057
508.69	0.11181
508.88	0.11462
509.06	0.11522
509.25	0.11768
509.44	0.11959
509.63	0.12203
509.81	0.12341
510.00	0.12472
510.19	0.12656
510.38	0.13081
510.56	0.13072
510.75	0.13298
510.94	0.13407
511.13	0.13485
511.31	0.13745
511.50	0.13912
511.69	0.14078
511.88	0.14224
512.06	0.14521
512.25	0.14523
512.44	0.14597
512.63	0.14963
512.81	0.15082
513.00	0.15118
513.19	0.15277
513.37	0.15246
513.56	0.15484
513.75	0.15908
513.94	0.15788
514.13	0.16071
514.31	0.15976
514.50	0.16356
514.69	0.16488
514.87	0.16642
515.06	0.16753
515.25	0.16762
515.44	0.16703
515.62	0.16913
515.81	0.16984
516.00	0.17213
516.19	0.17156
516.38	0.17294
516.56	0.17507
516.75	0.17511
516.94	0.17415
517.12	0.17742
517.31	0.17781
517.50	0.17901
517.69	0.17880
517.87	0.18007
518.06	0.17908
518.25	0.18201
518.44	0.18328
518.62	0.18313
518.81	0.18319
519.00	0.18450
519.19	0.18489
519.37	0.18680
519.56	0.18610
519.75	0.18735
519.94	0.18880
520.12	0.18826
520.31	0.18993
520.50	0.19005
520.69	0.19074
520.88	0.19197
521.06	0.19294
521.25	0.19475
521.44	0.19492
521.63	0.19563
521.81	0.19572
522.00	0.19743
522.19	0.19751
522.37	0.19713
522.56	0.19879
522.75	0.20116
522.94	0.20048
523.13	0.20329
523.31	0.20273
523.50	0.20354
523.69	0.20528
523.88	0.20398
524.06	0.20571
524.25	0.20630
524.44	0.20748
524.62	0.20856
524.81	0.20999
525.00	0.20960
525.19	0.21233
525.38	0.20980
525.56	0.21334
525.75	0.21404
525.94	0.21296
526.12	0.21405
526.31	0.21334
526.50	0.21506
526.69	0.21682
526.87	0.21744
527.06	0.21760
527.25	0.21894
527.44	0.22025
527.62	0.21927
527.81	0.21920
528.00	0.21988
528.19	0.22045
528.37	0.22141
528.56	0.22396
